%OpenBCI Raw EEG Data
%
%Sample Rate = 250.0 Hz
%First Column = SampleIndex
%Last Column = Timestamp 
%Other Columns = EEG data in microvolts followed by Accel Data (in G) interleaved with Aux Data
0, 187500.00, -187500.02, 187500.00, -28.88, -187500.02, -187500.02, -20.12, -187500.02, 0.018, 0.058, 0.498, 13:39:47.434
1, 187500.00, -187500.02, 187500.00, -29.21, -187500.02, -187500.02, -20.23, -187500.02, 0.000, 0.000, 0.000, 13:39:47.913
2, 187500.00, -187500.02, 187500.00, -30.96, -187500.02, -187500.02, -21.82, -187500.02, 0.000, 0.000, 0.000, 13:39:47.914
3, 187500.00, -187500.02, 187500.00, -27.47, -187500.02, -187500.02, -17.79, -187500.02, 0.000, 0.000, 0.000, 13:39:47.914
4, 187500.00, -187500.02, 187500.00, -28.92, -187500.02, -187500.02, -19.76, -187500.02, 0.000, 0.000, 0.000, 13:39:47.915
5, 187500.00, -187500.02, 187500.00, -29.19, -187500.02, -187500.02, -19.96, -187500.02, 0.000, 0.000, 0.000, 13:39:47.915
6, 187500.00, -187500.02, 187500.00, -31.43, -187500.02, -187500.02, -22.22, -187500.02, 0.000, 0.000, 0.000, 13:39:47.916
7, 187500.00, -187500.02, 187500.00, -27.78, -187500.02, -187500.02, -18.42, -187500.02, 0.036, 0.116, 1.012, 13:39:47.916
8, 187500.00, -187500.02, 187500.00, -28.41, -187500.02, -187500.02, -19.38, -187500.02, 0.000, 0.000, 0.000, 13:39:47.917
9, 187500.00, -187500.02, 187500.00, -29.01, -187500.02, -187500.02, -19.87, -187500.02, 0.000, 0.000, 0.000, 13:39:47.917
10, 187500.00, -187500.02, 187500.00, -31.05, -187500.02, -187500.02, -21.84, -187500.02, 0.000, 0.000, 0.000, 13:39:47.918
11, 187500.00, -187500.02, 187500.00, -28.14, -187500.02, -187500.02, -18.69, -187500.02, 0.000, 0.000, 0.000, 13:39:47.918
12, 187500.00, -187500.02, 187500.00, -28.19, -187500.02, -187500.02, -19.16, -187500.02, 0.000, 0.000, 0.000, 13:39:47.919
13, 187500.00, -187500.02, 187500.00, -29.03, -187500.02, -187500.02, -19.85, -187500.02, 0.000, 0.000, 0.000, 13:39:47.919
14, 187500.00, -187500.02, 187500.00, -30.98, -187500.02, -187500.02, -22.04, -187500.02, 0.000, 0.000, 0.000, 13:39:47.920
15, 187500.00, -187500.02, 187500.00, -29.26, -187500.02, -187500.02, -20.21, -187500.02, 0.000, 0.000, 0.000, 13:39:47.920
16, 187500.00, -187500.02, 187500.00, -27.43, -187500.02, -187500.02, -18.55, -187500.02, 0.034, 0.116, 1.008, 13:39:47.921
17, 187500.00, -187500.02, 187500.00, -28.59, -187500.02, -187500.02, -19.74, -187500.02, 0.000, 0.000, 0.000, 13:39:47.921
18, 187500.00, -187500.02, 187500.00, -30.04, -187500.02, -187500.02, -21.26, -187500.02, 0.000, 0.000, 0.000, 13:39:47.922
19, 187500.00, -187500.02, 187500.00, -29.91, -187500.02, -187500.02, -21.21, -187500.02, 0.000, 0.000, 0.000, 13:39:47.922
20, 187500.00, -187500.02, 187500.00, -27.43, -187500.02, -187500.02, -18.57, -187500.02, 0.000, 0.000, 0.000, 13:39:47.923
21, 187500.00, -187500.02, 187500.00, -28.74, -187500.02, -187500.02, -19.98, -187500.02, 0.000, 0.000, 0.000, 13:39:47.923
22, 187500.00, -187500.02, 187500.00, -29.71, -187500.02, -187500.02, -20.52, -187500.02, 0.000, 0.000, 0.000, 13:39:47.924
23, 187500.00, -187500.02, 187500.00, -31.00, -187500.02, -187500.02, -21.59, -187500.02, 0.000, 0.000, 0.000, 13:39:47.924
24, 187500.00, -187500.02, 187500.00, -27.49, -187500.02, -187500.02, -18.04, -187500.02, 0.000, 0.000, 0.000, 13:39:47.925
25, 187500.00, -187500.02, 187500.00, -28.97, -187500.02, -187500.02, -19.56, -187500.02, 0.000, 0.000, 0.000, 13:39:47.925
26, 187500.00, -187500.02, 187500.00, -29.39, -187500.02, -187500.02, -20.09, -187500.02, 0.036, 0.114, 1.004, 13:39:47.926
27, 187500.00, -187500.02, 187500.00, -31.16, -187500.02, -187500.02, -22.26, -187500.02, 0.000, 0.000, 0.000, 13:39:47.926
28, 187500.00, -187500.02, 187500.00, -27.38, -187500.02, -187500.02, -18.08, -187500.02, 0.000, 0.000, 0.000, 13:39:47.926
29, 187500.00, -187500.02, 187500.00, -28.86, -187500.02, -187500.02, -19.16, -187500.02, 0.000, 0.000, 0.000, 13:39:47.927
30, 187500.00, -187500.02, 187500.00, -29.37, -187500.02, -187500.02, -19.65, -187500.02, 0.000, 0.000, 0.000, 13:39:47.927
31, 187500.00, -187500.02, 187500.00, -31.47, -187500.02, -187500.02, -22.17, -187500.02, 0.000, 0.000, 0.000, 13:39:47.928
32, 187500.00, -187500.02, 187500.00, -27.92, -187500.02, -187500.02, -18.37, -187500.02, 0.000, 0.000, 0.000, 13:39:47.928
33, 187500.00, -187500.02, 187500.00, -28.19, -187500.02, -187500.02, -19.20, -187500.02, 0.000, 0.000, 0.000, 13:39:47.928
34, 187500.00, -187500.02, 187500.00, -28.79, -187500.02, -187500.02, -19.89, -187500.02, 0.000, 0.000, 0.000, 13:39:47.929
35, 187500.00, -187500.02, 187500.00, -31.16, -187500.02, -187500.02, -22.28, -187500.02, 0.000, 0.000, 0.000, 13:39:47.929
36, 187500.00, -187500.02, 187500.00, -28.81, -187500.02, -187500.02, -19.51, -187500.02, 0.040, 0.122, 1.002, 13:39:47.930
37, 187500.00, -187500.02, 187500.00, -28.10, -187500.02, -187500.02, -19.02, -187500.02, 0.000, 0.000, 0.000, 13:39:47.930
38, 187500.00, -187500.02, 187500.00, -29.03, -187500.02, -187500.02, -19.83, -187500.02, 0.000, 0.000, 0.000, 13:39:47.931
39, 187500.00, -187500.02, 187500.00, -30.82, -187500.02, -187500.02, -21.75, -187500.02, 0.000, 0.000, 0.000, 13:39:47.931
40, 187500.00, -187500.02, 187500.00, -29.37, -187500.02, -187500.02, -20.14, -187500.02, 0.000, 0.000, 0.000, 13:39:47.931
41, 187500.00, -187500.02, 187500.00, -27.92, -187500.02, -187500.02, -18.48, -187500.02, 0.000, 0.000, 0.000, 13:39:47.931
42, 187500.00, -187500.02, 187500.00, -28.97, -187500.02, -187500.02, -19.85, -187500.02, 0.000, 0.000, 0.000, 13:39:47.932
43, 187500.00, -187500.02, 187500.00, -30.00, -187500.02, -187500.02, -21.06, -187500.02, 0.000, 0.000, 0.000, 13:39:47.932
44, 187500.00, -187500.02, 187500.00, -30.15, -187500.02, -187500.02, -21.21, -187500.02, 0.000, 0.000, 0.000, 13:39:47.933
45, 187500.00, -187500.02, 187500.00, -27.51, -187500.02, -187500.02, -18.24, -187500.02, 0.000, 0.000, 0.000, 13:39:47.933
46, 187500.00, -187500.02, 187500.00, -28.97, -187500.02, -187500.02, -20.07, -187500.02, 0.032, 0.124, 1.002, 13:39:47.934
47, 187500.00, -187500.02, 187500.00, -29.41, -187500.02, -187500.02, -20.47, -187500.02, 0.000, 0.000, 0.000, 13:39:47.934
48, 187500.00, -187500.02, 187500.00, -30.89, -187500.02, -187500.02, -21.93, -187500.02, 0.000, 0.000, 0.000, 13:39:47.934
49, 187500.00, -187500.02, 187500.00, -27.69, -187500.02, -187500.02, -18.28, -187500.02, 0.000, 0.000, 0.000, 13:39:47.934
50, 187500.00, -187500.02, 187500.00, -28.86, -187500.02, -187500.02, -19.58, -187500.02, 0.000, 0.000, 0.000, 13:39:47.935
51, 187500.00, -187500.02, 187500.00, -28.99, -187500.02, -187500.02, -19.98, -187500.02, 0.000, 0.000, 0.000, 13:39:47.935
52, 187500.00, -187500.02, 187500.00, -30.98, -187500.02, -187500.02, -22.06, -187500.02, 0.000, 0.000, 0.000, 13:39:47.935
53, 187500.00, -187500.02, 187500.00, -27.69, -187500.02, -187500.02, -18.19, -187500.02, 0.000, 0.000, 0.000, 13:39:47.936
54, 187500.00, -187500.02, 187500.00, -28.68, -187500.02, -187500.02, -19.45, -187500.02, 0.000, 0.000, 0.000, 13:39:47.936
55, 187500.00, -187500.02, 187500.00, -28.97, -187500.02, -187500.02, -19.74, -187500.02, 0.000, 0.000, 0.000, 13:39:47.936
56, 187500.00, -187500.02, 187500.00, -31.00, -187500.02, -187500.02, -22.13, -187500.02, 0.040, 0.118, 1.010, 13:39:47.937
57, 187500.00, -187500.02, 187500.00, -27.85, -187500.02, -187500.02, -18.93, -187500.02, 0.000, 0.000, 0.000, 13:39:47.937
58, 187500.00, -187500.02, 187500.00, -28.10, -187500.02, -187500.02, -19.42, -187500.02, 0.000, 0.000, 0.000, 13:39:47.938
59, 187500.00, -187500.02, 187500.00, -28.70, -187500.02, -187500.02, -19.83, -187500.02, 0.000, 0.000, 0.000, 13:39:47.938
60, 187500.00, -187500.02, 187500.00, -30.80, -187500.02, -187500.02, -21.99, -187500.02, 0.000, 0.000, 0.000, 13:39:47.938
61, 187500.00, -187500.02, 187500.00, -28.77, -187500.02, -187500.02, -19.74, -187500.02, 0.000, 0.000, 0.000, 13:39:47.939
62, 187500.00, -187500.02, 187500.00, -28.05, -187500.02, -187500.02, -18.80, -187500.02, 0.000, 0.000, 0.000, 13:39:47.939
63, 187500.00, -187500.02, 187500.00, -28.88, -187500.02, -187500.02, -19.83, -187500.02, 0.000, 0.000, 0.000, 13:39:47.939
64, 187500.00, -187500.02, 187500.00, -30.35, -187500.02, -187500.02, -21.66, -187500.02, 0.000, 0.000, 0.000, 13:39:47.939
65, 187500.00, -187500.02, 187500.00, -29.55, -187500.02, -187500.02, -20.50, -187500.02, 0.000, 0.000, 0.000, 13:39:47.940
66, 187500.00, -187500.02, 187500.00, -27.63, -187500.02, -187500.02, -18.37, -187500.02, 0.044, 0.124, 1.006, 13:39:47.940
67, 187500.00, -187500.02, 187500.00, -28.65, -187500.02, -187500.02, -19.83, -187500.02, 0.000, 0.000, 0.000, 13:39:47.941
68, 187500.00, -187500.02, 187500.00, -30.00, -187500.02, -187500.02, -21.12, -187500.02, 0.000, 0.000, 0.000, 13:39:47.941
69, 187500.00, -187500.02, 187500.00, -30.51, -187500.02, -187500.02, -21.48, -187500.02, 0.000, 0.000, 0.000, 13:39:47.942
70, 187500.00, -187500.02, 187500.00, -27.40, -187500.02, -187500.02, -18.22, -187500.02, 0.000, 0.000, 0.000, 13:39:47.942
71, 187500.00, -187500.02, 187500.00, -29.10, -187500.02, -187500.02, -19.71, -187500.02, 0.000, 0.000, 0.000, 13:39:47.942
72, 187500.00, -187500.02, 187500.00, -29.57, -187500.02, -187500.02, -20.14, -187500.02, 0.000, 0.000, 0.000, 13:39:47.943
73, 187500.00, -187500.02, 187500.00, -30.82, -187500.02, -187500.02, -22.04, -187500.02, 0.000, 0.000, 0.000, 13:39:47.943
74, 187500.00, -187500.02, 187500.00, -27.16, -187500.02, -187500.02, -18.22, -187500.02, 0.000, 0.000, 0.000, 13:39:47.944
75, 187500.00, -187500.02, 187500.00, -28.65, -187500.02, -187500.02, -19.58, -187500.02, 0.044, 0.120, 1.000, 13:39:47.944
76, 187500.00, -187500.02, 187500.00, -29.08, -187500.02, -187500.02, -19.92, -187500.02, 0.000, 0.000, 0.000, 13:39:47.944
77, 187500.00, -187500.02, 187500.00, -31.05, -187500.02, -187500.02, -22.17, -187500.02, 0.000, 0.000, 0.000, 13:39:47.945
78, 187500.00, -187500.02, 187500.00, -27.40, -187500.02, -187500.02, -18.24, -187500.02, 0.000, 0.000, 0.000, 13:39:47.947
79, 187500.00, -187500.02, 187500.00, -28.57, -187500.02, -187500.02, -19.40, -187500.02, 0.000, 0.000, 0.000, 13:39:47.950
80, 187500.00, -187500.02, 187500.00, -28.77, -187500.02, -187500.02, -19.76, -187500.02, 0.000, 0.000, 0.000, 13:39:47.950
81, 187500.00, -187500.02, 187500.00, -31.05, -187500.02, -187500.02, -21.99, -187500.02, 0.000, 0.000, 0.000, 13:39:47.950
82, 187500.00, -187500.02, 187500.00, -28.41, -187500.02, -187500.02, -19.09, -187500.02, 0.000, 0.000, 0.000, 13:39:47.952
83, 187500.00, -187500.02, 187500.00, -28.32, -187500.02, -187500.02, -19.04, -187500.02, 0.000, 0.000, 0.000, 13:39:47.953
84, 187500.00, -187500.02, 187500.00, -28.81, -187500.02, -187500.02, -19.60, -187500.02, 0.000, 0.000, 0.000, 13:39:47.957
85, 187500.00, -187500.02, 187500.00, -30.60, -187500.02, -187500.02, -21.88, -187500.02, 0.042, 0.118, 0.994, 13:39:47.958
86, 187500.00, -187500.02, 187500.00, -29.06, -187500.02, -187500.02, -19.83, -187500.02, 0.000, 0.000, 0.000, 13:39:47.958
87, 187500.00, -187500.02, 187500.00, -28.03, -187500.02, -187500.02, -18.57, -187500.02, 0.000, 0.000, 0.000, 13:39:47.958
88, 187500.00, -187500.02, 187500.00, -28.70, -187500.02, -187500.02, -19.47, -187500.02, 0.000, 0.000, 0.000, 13:39:47.959
89, 187500.00, -187500.02, 187500.00, -30.53, -187500.02, -187500.02, -21.32, -187500.02, 0.000, 0.000, 0.000, 13:39:47.959
90, 187500.00, -187500.02, 187500.00, -30.15, -187500.02, -187500.02, -20.81, -187500.02, 0.000, 0.000, 0.000, 13:39:47.961
91, 187500.00, -187500.02, 187500.00, -27.65, -187500.02, -187500.02, -18.42, -187500.02, 0.000, 0.000, 0.000, 13:39:47.961
92, 187500.00, -187500.02, 187500.00, -28.70, -187500.02, -187500.02, -19.69, -187500.02, 0.000, 0.000, 0.000, 13:39:47.962
93, 187500.00, -187500.02, 187500.00, -29.41, -187500.02, -187500.02, -20.23, -187500.02, 0.000, 0.000, 0.000, 13:39:47.965
94, 187500.00, -187500.02, 187500.00, -30.60, -187500.02, -187500.02, -21.39, -187500.02, 0.000, 0.000, 0.000, 13:39:47.967
95, 187500.00, -187500.02, 187500.00, -27.51, -187500.02, -187500.02, -18.24, -187500.02, 0.042, 0.116, 1.000, 13:39:47.968
96, 187500.00, -187500.02, 187500.00, -29.08, -187500.02, -187500.02, -19.60, -187500.02, 0.000, 0.000, 0.000, 13:39:47.968
97, 187500.00, -187500.02, 187500.00, -29.21, -187500.02, -187500.02, -20.09, -187500.02, 0.000, 0.000, 0.000, 13:39:47.969
98, 187500.00, -187500.02, 187500.00, -31.31, -187500.02, -187500.02, -22.11, -187500.02, 0.000, 0.000, 0.000, 13:39:47.969
99, 187500.00, -187500.02, 187500.00, -27.65, -187500.02, -187500.02, -18.17, -187500.02, 0.000, 0.000, 0.000, 13:39:47.969
100, 187500.00, -187500.02, 187500.00, -28.54, -187500.02, -187500.02, -19.51, -187500.02, 0.000, 0.000, 0.000, 13:39:47.970
101, 187500.00, -187500.02, 187500.00, -29.08, -187500.02, -187500.02, -19.78, -187500.02, 0.000, 0.000, 0.000, 13:39:47.970
102, 187500.00, -187500.02, 187500.00, -31.38, -187500.02, -187500.02, -22.46, -187500.02, 0.000, 0.000, 0.000, 13:39:47.971
103, 187500.00, -187500.02, 187500.00, -27.92, -187500.02, -187500.02, -18.80, -187500.02, 0.000, 0.000, 0.000, 13:39:47.971
104, 187500.00, -187500.02, 187500.00, -28.59, -187500.02, -187500.02, -19.31, -187500.02, 0.000, 0.000, 0.000, 13:39:47.972
105, 187500.00, -187500.02, 187500.00, -28.97, -187500.02, -187500.02, -19.71, -187500.02, 0.042, 0.118, 1.002, 13:39:47.972
106, 187500.00, -187500.02, 187500.00, -30.87, -187500.02, -187500.02, -22.51, -187500.02, 0.000, 0.000, 0.000, 13:39:47.973
107, 187500.00, -187500.02, 187500.00, -28.63, -187500.02, -187500.02, -19.60, -187500.02, 0.000, 0.000, 0.000, 13:39:47.973
108, 187500.00, -187500.02, 187500.00, -28.01, -187500.02, -187500.02, -18.95, -187500.02, 0.000, 0.000, 0.000, 13:39:47.973
109, 187500.00, -187500.02, 187500.00, -28.86, -187500.02, -187500.02, -19.87, -187500.02, 0.000, 0.000, 0.000, 13:39:47.974
110, 187500.00, -187500.02, 187500.00, -30.93, -187500.02, -187500.02, -21.64, -187500.02, 0.000, 0.000, 0.000, 13:39:47.974
111, 187500.00, -187500.02, 187500.00, -29.21, -187500.02, -187500.02, -20.16, -187500.02, 0.000, 0.000, 0.000, 13:39:47.975
112, 187500.00, -187500.02, 187500.00, -27.78, -187500.02, -187500.02, -18.78, -187500.02, 0.000, 0.000, 0.000, 13:39:47.975
113, 187500.00, -187500.02, 187500.00, -28.81, -187500.02, -187500.02, -19.65, -187500.02, 0.000, 0.000, 0.000, 13:39:47.975
114, 187500.00, -187500.02, 187500.00, -30.06, -187500.02, -187500.02, -20.81, -187500.02, 0.000, 0.000, 0.000, 13:39:47.976
115, 187500.00, -187500.02, 187500.00, -30.11, -187500.02, -187500.02, -20.88, -187500.02, 0.042, 0.120, 1.000, 13:39:47.976
116, 187500.00, -187500.02, 187500.00, -27.67, -187500.02, -187500.02, -18.42, -187500.02, 0.000, 0.000, 0.000, 13:39:47.978
117, 187500.00, -187500.02, 187500.00, -29.03, -187500.02, -187500.02, -20.00, -187500.02, 0.000, 0.000, 0.000, 13:39:47.979
118, 187500.00, -187500.02, 187500.00, -29.44, -187500.02, -187500.02, -20.88, -187500.02, 0.000, 0.000, 0.000, 13:39:47.979
119, 187500.00, -187500.02, 187500.00, -30.85, -187500.02, -187500.02, -21.90, -187500.02, 0.000, 0.000, 0.000, 13:39:47.980
120, 187500.00, -187500.02, 187500.00, -27.47, -187500.02, -187500.02, -18.13, -187500.02, 0.000, 0.000, 0.000, 13:39:47.980
121, 187500.00, -187500.02, 187500.00, -28.79, -187500.02, -187500.02, -19.92, -187500.02, 0.000, 0.000, 0.000, 13:39:48.392
122, 187500.00, -187500.02, 187500.00, -29.10, -187500.02, -187500.02, -20.23, -187500.02, 0.000, 0.000, 0.000, 13:39:48.393
123, 187500.00, -187500.02, 187500.00, -31.31, -187500.02, -187500.02, -22.40, -187500.02, 0.000, 0.000, 0.000, 13:39:48.393
124, 187500.00, -187500.02, 187500.00, -27.65, -187500.02, -187500.02, -18.35, -187500.02, 0.042, 0.120, 1.000, 13:39:48.393
125, 187500.00, -187500.02, 187500.00, -28.90, -187500.02, -187500.02, -19.49, -187500.02, 0.000, 0.000, 0.000, 13:39:48.394
126, 187500.00, -187500.02, 187500.00, -28.81, -187500.02, -187500.02, -19.60, -187500.02, 0.000, 0.000, 0.000, 13:39:48.394
127, 187500.00, -187500.02, 187500.00, -31.02, -187500.02, -187500.02, -22.33, -187500.02, 0.000, 0.000, 0.000, 13:39:48.395
128, 187500.00, -187500.02, 187500.00, -28.01, -187500.02, -187500.02, -18.82, -187500.02, 0.000, 0.000, 0.000, 13:39:48.395
129, 187500.00, -187500.02, 187500.00, -28.14, -187500.02, -187500.02, -19.47, -187500.02, 0.000, 0.000, 0.000, 13:39:48.395
130, 187500.00, -187500.02, 187500.00, -28.59, -187500.02, -187500.02, -19.49, -187500.02, 0.000, 0.000, 0.000, 13:39:48.396
131, 187500.00, -187500.02, 187500.00, -30.93, -187500.02, -187500.02, -21.70, -187500.02, 0.000, 0.000, 0.000, 13:39:48.396
132, 187500.00, -187500.02, 187500.00, -28.65, -187500.02, -187500.02, -19.42, -187500.02, 0.000, 0.000, 0.000, 13:39:48.397
133, 187500.00, -187500.02, 187500.00, -27.96, -187500.02, -187500.02, -18.53, -187500.02, 0.000, 0.000, 0.000, 13:39:48.397
134, 187500.00, -187500.02, 187500.00, -28.79, -187500.02, -187500.02, -19.47, -187500.02, 0.040, 0.118, 1.002, 13:39:48.398
135, 187500.00, -187500.02, 187500.00, -30.53, -187500.02, -187500.02, -21.46, -187500.02, 0.000, 0.000, 0.000, 13:39:48.398
136, 187500.00, -187500.02, 187500.00, -29.53, -187500.02, -187500.02, -20.43, -187500.02, 0.000, 0.000, 0.000, 13:39:48.399
137, 187500.00, -187500.02, 187500.00, -27.78, -187500.02, -187500.02, -18.42, -187500.02, 0.000, 0.000, 0.000, 13:39:48.399
138, 187500.00, -187500.02, 187500.00, -28.79, -187500.02, -187500.02, -19.58, -187500.02, 0.000, 0.000, 0.000, 13:39:48.399
139, 187500.00, -187500.02, 187500.00, -30.09, -187500.02, -187500.02, -21.26, -187500.02, 0.000, 0.000, 0.000, 13:39:48.400
140, 187500.00, -187163.98, 187500.00, -30.15, -187500.02, -187500.02, -21.30, -187500.02, 0.000, 0.000, 0.000, 13:39:48.400
141, 187500.00, -187500.02, 187500.00, -27.20, -187500.02, -187500.02, -17.79, -187500.02, 0.000, 0.000, 0.000, 13:39:48.401
142, 187500.00, -187500.02, 187500.00, -28.70, -187500.02, -187500.02, -19.58, -187500.02, 0.000, 0.000, 0.000, 13:39:48.401
143, 187500.00, -187500.02, 187500.00, -29.71, -187500.02, -187500.02, -20.61, -187500.02, 0.000, 0.000, 0.000, 13:39:48.401
144, 187500.00, -187372.48, 187500.00, -30.96, -187500.02, -187500.02, -21.97, -187500.02, 0.042, 0.118, 1.002, 13:39:48.402
145, 187500.00, -187500.02, 187500.00, -27.29, -187500.02, -187500.02, -17.97, -187500.02, 0.000, 0.000, 0.000, 13:39:48.402
146, 187500.00, -187500.02, 187500.00, -28.81, -187500.02, -187500.02, -19.65, -187500.02, 0.000, 0.000, 0.000, 13:39:48.403
147, 187500.00, -187500.02, 187500.00, -29.37, -187500.02, -187500.02, -20.05, -187500.02, 0.000, 0.000, 0.000, 13:39:48.403
148, 187500.00, -187500.02, 187500.00, -31.65, -187500.02, -187500.02, -22.28, -187500.02, 0.000, 0.000, 0.000, 13:39:48.404
149, 187500.00, -187500.02, 187500.00, -27.56, -187500.02, -187500.02, -18.02, -187500.02, 0.000, 0.000, 0.000, 13:39:48.404
150, 187500.00, -187500.02, 187500.00, -28.52, -187500.02, -187500.02, -19.40, -187500.02, 0.000, 0.000, 0.000, 13:39:48.405
151, 187500.00, -187500.02, 187500.00, -29.10, -187500.02, -187500.02, -20.14, -187500.02, 0.000, 0.000, 0.000, 13:39:48.405
152, 187500.00, -187500.02, 187500.00, -31.47, -187500.02, -187500.02, -22.51, -187500.02, 0.000, 0.000, 0.000, 13:39:48.405
153, 187500.00, -187500.02, 187500.00, -27.94, -187500.02, -187500.02, -18.35, -187500.02, 0.000, 0.000, 0.000, 13:39:48.406
154, 187500.00, -187500.02, 187500.00, -28.14, -187500.02, -187500.02, -18.73, -187500.02, 0.046, 0.118, 1.006, 13:39:48.406
155, 187500.00, -187500.02, 187500.00, -28.97, -187500.02, -187500.02, -19.58, -187500.02, 0.000, 0.000, 0.000, 13:39:48.407
156, 187500.00, -187500.02, 187500.00, -31.07, -187500.02, -187500.02, -22.04, -187500.02, 0.000, 0.000, 0.000, 13:39:48.407
157, 187500.00, -187313.41, 187500.00, -28.59, -187500.02, -187500.02, -19.54, -187500.02, 0.000, 0.000, 0.000, 13:39:48.407
158, 187500.00, -187500.02, 187500.00, -27.81, -187500.02, -187500.02, -18.66, -187500.02, 0.000, 0.000, 0.000, 13:39:48.408
159, 187500.00, -187500.02, 187500.00, -29.06, -187500.02, -187500.02, -19.80, -187500.02, 0.000, 0.000, 0.000, 13:39:48.408
160, 187500.00, -187500.02, 187500.00, -30.87, -187500.02, -187500.02, -21.93, -187500.02, 0.000, 0.000, 0.000, 13:39:48.408
161, 187500.00, -185639.20, 187500.00, -29.48, -187500.02, -187500.02, -20.50, -187500.02, 0.000, 0.000, 0.000, 13:39:48.409
162, 187500.00, -187500.02, 187500.00, -27.20, -187500.02, -187500.02, -18.02, -187500.02, 0.000, 0.000, 0.000, 13:39:48.410
163, 187500.00, -187500.02, 187500.00, -28.81, -187500.02, -187500.02, -19.80, -187500.02, 0.000, 0.000, 0.000, 13:39:48.415
164, 187500.00, -187500.02, 187500.00, -30.13, -187500.02, -187500.02, -21.26, -187500.02, 0.044, 0.126, 1.002, 13:39:48.416
165, 187500.00, -185294.02, 187500.00, -30.60, -187500.02, -187500.02, -21.84, -187500.02, 0.000, 0.000, 0.000, 13:39:48.416
166, 187500.00, -187500.02, 187500.00, -27.14, -187500.02, -187500.02, -17.81, -187500.02, 0.000, 0.000, 0.000, 13:39:48.417
167, 187500.00, -187500.02, 187500.00, -29.03, -187500.02, -187500.02, -19.69, -187500.02, 0.000, 0.000, 0.000, 13:39:48.417
168, 187500.00, -187500.02, 187500.00, -29.53, -187500.02, -187500.02, -20.54, -187500.02, 0.000, 0.000, 0.000, 13:39:48.418
169, 187500.00, -186412.02, 187500.00, -31.11, -187500.02, -187500.02, -22.40, -187500.02, 0.000, 0.000, 0.000, 13:39:48.418
170, 187500.00, -187500.02, 187500.00, -27.09, -187500.02, -187500.02, -17.66, -187500.02, 0.000, 0.000, 0.000, 13:39:48.418
171, 187500.00, -187500.02, 187500.00, -28.54, -187500.02, -187500.02, -19.60, -187500.02, 0.000, 0.000, 0.000, 13:39:48.419
172, 187500.00, -187500.02, 187500.00, -29.15, -187500.02, -187500.02, -20.07, -187500.02, 0.000, 0.000, 0.000, 13:39:48.419
173, 187500.00, -187500.02, 187500.00, -31.49, -187500.02, -187500.02, -22.58, -187500.02, 0.000, 0.000, 0.000, 13:39:48.420
174, 187500.00, -187500.02, 187500.00, -27.31, -187500.02, -187500.02, -17.90, -187500.02, 0.042, 0.120, 1.006, 13:39:48.420
175, 187500.00, -187500.02, 187500.00, -28.30, -187500.02, -187500.02, -18.82, -187500.02, 0.000, 0.000, 0.000, 13:39:48.420
176, 187500.00, -187500.02, 187500.00, -29.12, -187500.02, -187500.02, -19.78, -187500.02, 0.000, 0.000, 0.000, 13:39:48.421
177, 187500.00, -187500.02, 187500.00, -31.54, -187500.02, -187500.02, -22.55, -187500.02, 0.000, 0.000, 0.000, 13:39:48.421
178, 187500.00, -187500.02, 187500.00, -27.89, -187500.02, -187500.02, -18.98, -187500.02, 0.000, 0.000, 0.000, 13:39:48.421
179, 187500.00, -187500.02, 187500.00, -28.12, -187500.02, -187500.02, -19.02, -187500.02, 0.000, 0.000, 0.000, 13:39:48.422
180, 187500.00, -187500.02, 187500.00, -29.21, -187500.02, -187500.02, -19.80, -187500.02, 0.000, 0.000, 0.000, 13:39:48.422
181, 187500.00, -187500.02, 187500.00, -31.31, -187500.02, -187500.02, -22.15, -187500.02, 0.000, 0.000, 0.000, 13:39:48.422
182, 187500.00, -186932.02, 187500.00, -28.99, -187500.02, -187500.02, -19.60, -187500.02, 0.000, 0.000, 0.000, 13:39:48.423
183, 187500.00, -187500.02, 187500.00, -27.65, -187500.02, -187500.02, -18.46, -187500.02, 0.040, 0.122, 1.008, 13:39:48.423
184, 187500.00, -187500.02, 187500.00, -29.03, -187500.02, -187500.02, -19.83, -187500.02, 0.000, 0.000, 0.000, 13:39:48.424
185, 187500.00, -187500.02, 187500.00, -30.89, -187500.02, -187500.02, -21.68, -187500.02, 0.000, 0.000, 0.000, 13:39:48.424
186, 187500.00, -185749.41, 187500.00, -30.26, -187500.02, -187500.02, -20.76, -187500.02, 0.000, 0.000, 0.000, 13:39:48.425
187, 187500.00, -187500.02, 187500.00, -27.54, -187500.02, -187500.02, -17.77, -187500.02, 0.000, 0.000, 0.000, 13:39:48.426
188, 187500.00, -187500.02, 187500.00, -29.08, -187500.02, -187500.02, -19.65, -187500.02, 0.000, 0.000, 0.000, 13:39:48.426
189, 187500.00, -187500.02, 187500.00, -30.20, -187500.02, -187500.02, -20.92, -187500.02, 0.000, 0.000, 0.000, 13:39:48.426
190, 187500.00, -185746.14, 187500.00, -30.76, -187500.02, -187500.02, -21.75, -187500.02, 0.000, 0.000, 0.000, 13:39:48.427
191, 187500.00, -187500.02, 187500.00, -27.18, -187500.02, -187500.02, -17.93, -187500.02, 0.000, 0.000, 0.000, 13:39:48.427
192, 187500.00, -187500.02, 187500.00, -28.88, -187500.02, -187500.02, -19.71, -187500.02, 0.000, 0.000, 0.000, 13:39:48.429
193, 187500.00, -187500.02, 187500.00, -29.44, -187500.02, -187500.02, -20.30, -187500.02, 0.046, 0.124, 1.000, 13:39:48.429
194, 187500.00, -187155.86, 187500.00, -31.14, -187500.02, -187500.02, -22.20, -187500.02, 0.000, 0.000, 0.000, 13:39:48.430
195, 187500.00, -187500.02, 187500.00, -27.14, -187500.02, -187500.02, -17.86, -187500.02, 0.000, 0.000, 0.000, 13:39:48.430
196, 187500.00, -187500.02, 187500.00, -28.77, -187500.02, -187500.02, -19.60, -187500.02, 0.000, 0.000, 0.000, 13:39:48.438
197, 187500.00, -187500.02, 187500.00, -29.30, -187500.02, -187500.02, -19.87, -187500.02, 0.000, 0.000, 0.000, 13:39:48.438
198, 187500.00, -187500.02, 187500.00, -31.56, -187500.02, -187500.02, -22.40, -187500.02, 0.000, 0.000, 0.000, 13:39:48.439
199, 187500.00, -187500.02, 187500.00, -27.81, -187500.02, -187500.02, -18.46, -187500.02, 0.000, 0.000, 0.000, 13:39:48.439
200, 187500.00, -187500.02, 187500.00, -28.14, -187500.02, -187500.02, -19.36, -187500.02, 0.000, 0.000, 0.000, 13:39:48.440
201, 187500.00, -187500.02, 187500.00, -28.74, -187500.02, -187500.02, -20.14, -187500.02, 0.000, 0.000, 0.000, 13:39:48.440
202, 187500.00, -187500.02, 187500.00, -30.98, -187500.02, -187500.02, -22.49, -187500.02, 0.000, 0.000, 0.000, 13:39:48.441
203, 187500.00, -187500.02, 187500.00, -28.05, -187500.02, -187500.02, -19.04, -187500.02, 0.046, 0.116, 0.998, 13:39:48.441
204, 187500.00, -187500.02, 187500.00, -27.89, -187500.02, -187500.02, -18.69, -187500.02, 0.000, 0.000, 0.000, 13:39:48.441
205, 187500.00, -187500.02, 187500.00, -28.88, -187500.02, -187500.02, -19.96, -187500.02, 0.000, 0.000, 0.000, 13:39:48.442
206, 187500.00, -187500.02, 187500.00, -30.69, -187500.02, -187500.02, -21.97, -187500.02, 0.000, 0.000, 0.000, 13:39:48.443
207, 187500.00, -187076.98, 187500.00, -29.19, -187500.02, -187500.02, -20.00, -187500.02, 0.000, 0.000, 0.000, 13:39:48.444
208, 187500.00, -187500.02, 187500.00, -27.81, -187500.02, -187500.02, -18.35, -187500.02, 0.000, 0.000, 0.000, 13:39:48.444
209, 187500.00, -187500.02, 187500.00, -29.03, -187500.02, -187500.02, -19.85, -187500.02, 0.000, 0.000, 0.000, 13:39:48.445
210, 187500.00, -187500.02, 187500.00, -30.29, -187500.02, -187500.02, -21.28, -187500.02, 0.000, 0.000, 0.000, 13:39:48.445
211, 187500.00, -186218.14, 187500.00, -29.93, -187500.02, -187500.02, -21.14, -187500.02, 0.000, 0.000, 0.000, 13:39:48.445
212, 187500.00, -187500.02, 187500.00, -27.45, -187500.02, -187500.02, -18.13, -187500.02, 0.000, 0.000, 0.000, 13:39:48.446
213, 187500.00, -187500.02, 187500.00, -29.21, -187500.02, -187500.02, -19.80, -187500.02, 0.044, 0.118, 0.998, 13:39:48.446
214, 187500.00, -187500.02, 187500.00, -29.75, -187500.02, -187500.02, -20.72, -187500.02, 0.000, 0.000, 0.000, 13:39:48.447
215, 187500.00, -186512.47, 187500.00, -30.93, -187500.02, -187500.02, -21.82, -187500.02, 0.000, 0.000, 0.000, 13:39:48.447
216, 187500.00, -187500.02, 187500.00, -27.18, -187500.02, -187500.02, -17.68, -187500.02, 0.000, 0.000, 0.000, 13:39:48.447
217, 187500.00, -187500.02, 187500.00, -28.43, -187500.02, -187500.02, -19.49, -187500.02, 0.000, 0.000, 0.000, 13:39:48.448
218, 187500.00, -187500.02, 187500.00, -29.10, -187500.02, -187500.02, -20.16, -187500.02, 0.000, 0.000, 0.000, 13:39:48.449
219, 187500.00, -187500.02, 187500.00, -31.45, -187500.02, -187500.02, -22.53, -187500.02, 0.000, 0.000, 0.000, 13:39:48.450
220, 187500.00, -187500.02, 187500.00, -27.43, -187500.02, -187500.02, -17.79, -187500.02, 0.000, 0.000, 0.000, 13:39:48.450
221, 187500.00, -187500.02, 187500.00, -28.54, -187500.02, -187500.02, -19.22, -187500.02, 0.000, 0.000, 0.000, 13:39:48.451
222, 187500.00, -187500.02, 187500.00, -29.01, -187500.02, -187500.02, -19.71, -187500.02, 0.000, 0.000, 0.000, 13:39:48.451
223, 187500.00, -187500.02, 187500.00, -31.29, -187500.02, -187500.02, -22.28, -187500.02, 0.044, 0.120, 1.000, 13:39:48.451
224, 187500.00, -187500.02, 187500.00, -27.78, -187500.02, -187500.02, -18.86, -187500.02, 0.000, 0.000, 0.000, 13:39:48.452
225, 187500.00, -187500.02, 187500.00, -28.59, -187500.02, -187500.02, -19.42, -187500.02, 0.000, 0.000, 0.000, 13:39:48.452
226, 187500.00, -187500.02, 187500.00, -29.10, -187500.02, -187500.02, -19.87, -187500.02, 0.000, 0.000, 0.000, 13:39:48.452
227, 187500.00, -187500.02, 187500.00, -31.34, -187500.02, -187500.02, -22.24, -187500.02, 0.000, 0.000, 0.000, 13:39:48.453
228, 187500.00, -187500.02, 187500.00, -28.36, -187500.02, -187500.02, -19.22, -187500.02, 0.000, 0.000, 0.000, 13:39:48.453
229, 187500.00, -187500.02, 187500.00, -28.10, -187500.02, -187500.02, -18.71, -187500.02, 0.000, 0.000, 0.000, 13:39:48.454
230, 187500.00, -187500.02, 187500.00, -29.19, -187500.02, -187500.02, -19.74, -187500.02, 0.000, 0.000, 0.000, 13:39:48.454
231, 187500.00, -187500.02, 187500.00, -30.82, -187500.02, -187500.02, -21.52, -187500.02, 0.000, 0.000, 0.000, 13:39:48.454
232, 187500.00, -187268.09, 187500.00, -29.64, -187500.02, -187500.02, -20.41, -187500.02, 0.046, 0.116, 0.992, 13:39:48.455
233, 187500.00, -187500.02, 187500.00, -27.65, -187500.02, -187500.02, -18.22, -187500.02, 0.000, 0.000, 0.000, 13:39:48.455
234, 187500.00, -187500.02, 187500.00, -29.06, -187500.02, -187500.02, -19.92, -187500.02, 0.000, 0.000, 0.000, 13:39:48.455
235, 187500.00, -187500.02, 187500.00, -30.42, -187500.02, -187500.02, -21.28, -187500.02, 0.000, 0.000, 0.000, 13:39:48.456
236, 187500.00, -186668.17, 187500.00, -30.09, -187500.02, -187500.02, -21.30, -187500.02, 0.000, 0.000, 0.000, 13:39:48.456
237, 187500.00, -187500.02, 187500.00, -27.25, -187500.02, -187500.02, -17.93, -187500.02, 0.000, 0.000, 0.000, 13:39:48.456
238, 187500.00, -187500.02, 187500.00, -28.95, -187500.02, -187500.02, -19.74, -187500.02, 0.000, 0.000, 0.000, 13:39:48.457
239, 187500.00, -187500.02, 187500.00, -29.41, -187500.02, -187500.02, -20.36, -187500.02, 0.000, 0.000, 0.000, 13:39:48.457
240, 187500.00, -187212.48, 187500.00, -30.98, -187500.02, -187500.02, -21.86, -187500.02, 0.000, 0.000, 0.000, 13:39:48.457
241, 187500.00, -187500.02, 187500.00, -27.49, -187500.02, -187500.02, -17.79, -187500.02, 0.000, 0.000, 0.000, 13:39:48.873
242, 187500.00, -187500.02, 187500.00, -29.06, -187500.02, -187500.02, -19.45, -187500.02, 0.044, 0.118, 0.986, 13:39:48.873
243, 187500.00, -187500.02, 187500.00, -29.10, -187500.02, -187500.02, -20.14, -187500.02, 0.000, 0.000, 0.000, 13:39:48.874
244, 187500.00, -187500.02, 187500.00, -31.14, -187500.02, -187500.02, -22.44, -187500.02, 0.000, 0.000, 0.000, 13:39:48.874
245, 187500.00, -187500.02, 187500.00, -27.36, -187500.02, -187500.02, -18.31, -187500.02, 0.000, 0.000, 0.000, 13:39:48.874
246, 187500.00, -187500.02, 187500.00, -28.43, -187500.02, -187500.02, -19.56, -187500.02, 0.000, 0.000, 0.000, 13:39:48.874
247, 187500.00, -187500.02, 187500.00, -29.12, -187500.02, -187500.02, -19.87, -187500.02, 0.000, 0.000, 0.000, 13:39:48.874
248, 187500.00, -187500.02, 187500.00, -31.34, -187500.02, -187500.02, -22.26, -187500.02, 0.000, 0.000, 0.000, 13:39:48.875
249, 187500.00, -187500.02, 187500.00, -28.05, -187500.02, -187500.02, -18.93, -187500.02, 0.000, 0.000, 0.000, 13:39:48.875
250, 187500.00, -187500.02, 187500.00, -28.36, -187500.02, -187500.02, -19.04, -187500.02, 0.000, 0.000, 0.000, 13:39:48.875
251, 187500.00, -187500.02, 187500.00, -29.06, -187500.02, -187500.02, -19.83, -187500.02, 0.000, 0.000, 0.000, 13:39:48.875
252, 187500.00, -187500.02, 187500.00, -30.98, -187500.02, -187500.02, -22.22, -187500.02, 0.044, 0.118, 0.990, 13:39:48.875
253, 187500.00, -187500.02, 187500.00, -28.74, -187500.02, -187500.02, -19.51, -187500.02, 0.000, 0.000, 0.000, 13:39:48.876
254, 187500.00, -187500.02, 187500.00, -27.74, -187500.02, -187500.02, -18.42, -187500.02, 0.000, 0.000, 0.000, 13:39:48.876
255, 187500.00, -187500.02, 187500.00, -28.92, -187500.02, -187500.02, -19.67, -187500.02, 0.000, 0.000, 0.000, 13:39:48.876
0, 187500.00, -187500.02, 187500.00, -30.35, -187500.02, -187500.02, -21.55, -187500.02, 0.000, 0.000, 0.000, 13:39:48.876
1, 187500.00, -187419.42, 187500.00, -29.82, -187500.02, -187500.02, -20.59, -187500.02, 0.000, 0.000, 0.000, 13:39:48.877
2, 187500.00, -187500.02, 187500.00, -27.85, -187500.02, -187500.02, -18.22, -187500.02, 0.000, 0.000, 0.000, 13:39:48.877
3, 187500.00, -187500.02, 187500.00, -29.21, -187500.02, -187500.02, -19.89, -187500.02, 0.000, 0.000, 0.000, 13:39:48.877
4, 187500.00, -187500.02, 187500.00, -30.20, -187500.02, -187500.02, -20.97, -187500.02, 0.000, 0.000, 0.000, 13:39:48.878
5, 187500.00, -187111.30, 187500.00, -30.60, -187500.02, -187500.02, -21.66, -187500.02, 0.000, 0.000, 0.000, 13:39:48.878
6, 187500.00, -187500.02, 187500.00, -27.25, -187500.02, -187500.02, -17.95, -187500.02, 0.042, 0.118, 0.994, 13:39:48.887
7, 187500.00, -187500.02, 187500.00, -28.83, -187500.02, -187500.02, -19.71, -187500.02, 0.000, 0.000, 0.000, 13:39:48.887
8, 187500.00, -187500.02, 187500.00, -29.28, -187500.02, -187500.02, -20.38, -187500.02, 0.000, 0.000, 0.000, 13:39:48.887
9, 187500.00, -187500.02, 187500.00, -31.23, -187500.02, -187500.02, -22.04, -187500.02, 0.000, 0.000, 0.000, 13:39:48.887
10, 187500.00, -187500.02, 187500.00, -27.51, -187500.02, -187500.02, -17.99, -187500.02, 0.000, 0.000, 0.000, 13:39:48.888
11, 187500.00, -187500.02, 187500.00, -28.88, -187500.02, -187500.02, -19.45, -187500.02, 0.000, 0.000, 0.000, 13:39:48.888
12, 187500.00, -187500.02, 187500.00, -29.12, -187500.02, -187500.02, -20.03, -187500.02, 0.000, 0.000, 0.000, 13:39:48.888
13, 187500.00, -187500.02, 187500.00, -31.43, -187500.02, -187500.02, -22.71, -187500.02, 0.000, 0.000, 0.000, 13:39:48.889
14, 187500.00, -187500.02, 187500.00, -27.63, -187500.02, -187500.02, -18.57, -187500.02, 0.000, 0.000, 0.000, 13:39:48.889
15, 187500.00, -187500.02, 187500.00, -28.23, -187500.02, -187500.02, -19.20, -187500.02, 0.000, 0.000, 0.000, 13:39:48.889
16, 187500.00, -187500.02, 187500.00, -28.81, -187500.02, -187500.02, -19.51, -187500.02, 0.044, 0.120, 0.998, 13:39:48.890
17, 187500.00, -187500.02, 187500.00, -31.23, -187500.02, -187500.02, -22.20, -187500.02, 0.000, 0.000, 0.000, 13:39:48.890
18, 187500.00, -187500.02, 187500.00, -28.50, -187500.02, -187500.02, -19.09, -187500.02, 0.000, 0.000, 0.000, 13:39:48.890
19, 187500.00, -187500.02, 187500.00, -28.10, -187500.02, -187500.02, -18.98, -187500.02, 0.000, 0.000, 0.000, 13:39:48.890
20, 187500.00, -187500.02, 187500.00, -28.81, -187500.02, -187500.02, -19.69, -187500.02, 0.000, 0.000, 0.000, 13:39:48.891
21, 187500.00, -187500.02, 187500.00, -30.89, -187500.02, -187500.02, -21.59, -187500.02, 0.000, 0.000, 0.000, 13:39:48.891
22, 187500.00, -187500.02, 187500.00, -28.97, -187500.02, -187500.02, -19.60, -187500.02, 0.000, 0.000, 0.000, 13:39:48.891
23, 187500.00, -187500.02, 187500.00, -27.83, -187500.02, -187500.02, -18.40, -187500.02, 0.000, 0.000, 0.000, 13:39:48.892
24, 187500.00, -187500.02, 187500.00, -29.10, -187500.02, -187500.02, -19.65, -187500.02, 0.000, 0.000, 0.000, 13:39:48.892
25, 187500.00, -187500.02, 187500.00, -30.55, -187500.02, -187500.02, -21.32, -187500.02, 0.000, 0.000, 0.000, 13:39:48.892
26, 187500.00, -187500.02, 187500.00, -30.20, -187500.02, -187500.02, -20.72, -187500.02, 0.044, 0.120, 0.996, 13:39:48.892
27, 187500.00, -187500.02, 187500.00, -27.69, -187500.02, -187500.02, -18.13, -187500.02, 0.000, 0.000, 0.000, 13:39:48.893
28, 187500.00, -187500.02, 187500.00, -29.24, -187500.02, -187500.02, -20.16, -187500.02, 0.000, 0.000, 0.000, 13:39:48.893
29, 187500.00, -187500.02, 187500.00, -30.13, -187500.02, -187500.02, -20.92, -187500.02, 0.000, 0.000, 0.000, 13:39:48.893
30, 187500.00, -187462.44, 187500.00, -30.67, -187500.02, -187500.02, -21.52, -187500.02, 0.000, 0.000, 0.000, 13:39:48.894
31, 187500.00, -187500.02, 187500.00, -27.31, -187500.02, -187500.02, -17.90, -187500.02, 0.000, 0.000, 0.000, 13:39:48.894
32, 187500.00, -187500.02, 187500.00, -28.63, -187500.02, -187500.02, -19.67, -187500.02, 0.000, 0.000, 0.000, 13:39:48.894
33, 187500.00, -187500.02, 187500.00, -29.26, -187500.02, -187500.02, -20.16, -187500.02, 0.000, 0.000, 0.000, 13:39:48.895
34, 187500.00, -187500.02, 187500.00, -31.20, -187500.02, -187500.02, -22.26, -187500.02, 0.000, 0.000, 0.000, 13:39:48.895
35, 187500.00, -187500.02, 187500.00, -27.58, -187500.02, -187500.02, -18.17, -187500.02, 0.042, 0.116, 0.994, 13:39:48.895
36, 187500.00, -187500.02, 187500.00, -28.54, -187500.02, -187500.02, -19.42, -187500.02, 0.000, 0.000, 0.000, 13:39:48.895
37, 187500.00, -187500.02, 187500.00, -29.19, -187500.02, -187500.02, -19.94, -187500.02, 0.000, 0.000, 0.000, 13:39:48.896
38, 187500.00, -187500.02, 187500.00, -31.65, -187500.02, -187500.02, -22.37, -187500.02, 0.000, 0.000, 0.000, 13:39:48.896
39, 187500.00, -187500.02, 187500.00, -27.63, -187500.02, -187500.02, -18.24, -187500.02, 0.000, 0.000, 0.000, 13:39:48.896
40, 187500.00, -187500.02, 187500.00, -28.41, -187500.02, -187500.02, -19.11, -187500.02, 0.000, 0.000, 0.000, 13:39:48.897
41, 187500.00, -187500.02, 187500.00, -29.15, -187500.02, -187500.02, -19.76, -187500.02, 0.000, 0.000, 0.000, 13:39:48.897
42, 187500.00, -187500.02, 187500.00, -31.27, -187500.02, -187500.02, -22.22, -187500.02, 0.000, 0.000, 0.000, 13:39:48.897
43, 187500.00, -187500.02, 187500.00, -28.59, -187500.02, -187500.02, -19.40, -187500.02, 0.000, 0.000, 0.000, 13:39:48.898
44, 187500.00, -187500.02, 187500.00, -27.98, -187500.02, -187500.02, -18.73, -187500.02, 0.000, 0.000, 0.000, 13:39:48.898
45, 187500.00, -187500.02, 187500.00, -28.88, -187500.02, -187500.02, -19.60, -187500.02, 0.044, 0.118, 0.998, 13:39:48.898
46, 187500.00, -187500.02, 187500.00, -30.89, -187500.02, -187500.02, -21.61, -187500.02, 0.000, 0.000, 0.000, 13:39:48.899
47, 187500.00, -187500.02, 187500.00, -29.28, -187500.02, -187500.02, -19.87, -187500.02, 0.000, 0.000, 0.000, 13:39:48.899
48, 187500.00, -187500.02, 187500.00, -27.92, -187500.02, -187500.02, -18.13, -187500.02, 0.000, 0.000, 0.000, 13:39:48.899
49, 187500.00, -187500.02, 187500.00, -28.99, -187500.02, -187500.02, -19.65, -187500.02, 0.000, 0.000, 0.000, 13:39:48.900
50, 187500.00, -187500.02, 187500.00, -30.11, -187500.02, -187500.02, -21.14, -187500.02, 0.000, 0.000, 0.000, 13:39:48.900
51, 187500.00, -187482.88, 187500.00, -30.24, -187500.02, -187500.02, -21.28, -187500.02, 0.000, 0.000, 0.000, 13:39:48.900
52, 187500.00, -187500.02, 187500.00, -27.43, -187500.02, -187500.02, -18.15, -187500.02, 0.000, 0.000, 0.000, 13:39:48.900
53, 187500.00, -187500.02, 187500.00, -28.74, -187500.02, -187500.02, -19.65, -187500.02, 0.000, 0.000, 0.000, 13:39:48.901
54, 187500.00, -187500.02, 187500.00, -29.53, -187500.02, -187500.02, -20.41, -187500.02, 0.000, 0.000, 0.000, 13:39:48.901
55, 187500.00, -187500.02, 187500.00, -30.82, -187500.02, -187500.02, -21.88, -187500.02, 0.036, 0.124, 0.998, 13:39:48.901
56, 187500.00, -187500.02, 187500.00, -27.14, -187500.02, -187500.02, -17.86, -187500.02, 0.000, 0.000, 0.000, 13:39:48.902
57, 187500.00, -187500.02, 187500.00, -28.86, -187500.02, -187500.02, -19.65, -187500.02, 0.000, 0.000, 0.000, 13:39:48.902
58, 187500.00, -187500.02, 187500.00, -29.39, -187500.02, -187500.02, -20.16, -187500.02, 0.000, 0.000, 0.000, 13:39:48.902
59, 187500.00, -187500.02, 187500.00, -31.07, -187500.02, -187500.02, -22.44, -187500.02, 0.000, 0.000, 0.000, 13:39:48.903
60, 187500.00, -187500.02, 187500.00, -27.65, -187500.02, -187500.02, -18.40, -187500.02, 0.000, 0.000, 0.000, 13:39:48.903
61, 187500.00, -187500.02, 187500.00, -28.99, -187500.02, -187500.02, -19.33, -187500.02, 0.000, 0.000, 0.000, 13:39:48.903
62, 187500.00, -187500.02, 187500.00, -29.12, -187500.02, -187500.02, -19.60, -187500.02, 0.000, 0.000, 0.000, 13:39:48.904
63, 187500.00, -187500.02, 187500.00, -31.16, -187500.02, -187500.02, -22.26, -187500.02, 0.000, 0.000, 0.000, 13:39:48.904
64, 187500.00, -187500.02, 187500.00, -27.72, -187500.02, -187500.02, -18.66, -187500.02, 0.000, 0.000, 0.000, 13:39:48.904
65, 187500.00, -187500.02, 187500.00, -28.30, -187500.02, -187500.02, -19.16, -187500.02, 0.042, 0.124, 1.002, 13:39:48.905
66, 187500.00, -187500.02, 187500.00, -29.03, -187500.02, -187500.02, -19.87, -187500.02, 0.000, 0.000, 0.000, 13:39:48.905
67, 187500.00, -187500.02, 187500.00, -31.23, -187500.02, -187500.02, -21.99, -187500.02, 0.000, 0.000, 0.000, 13:39:48.905
68, 187500.00, -187500.02, 187500.00, -28.74, -187500.02, -187500.02, -19.27, -187500.02, 0.000, 0.000, 0.000, 13:39:48.906
69, 187500.00, -187500.02, 187500.00, -28.19, -187500.02, -187500.02, -18.75, -187500.02, 0.000, 0.000, 0.000, 13:39:48.906
70, 187500.00, -187500.02, 187500.00, -29.10, -187500.02, -187500.02, -19.85, -187500.02, 0.000, 0.000, 0.000, 13:39:48.906
71, 187500.00, -187500.02, 187500.00, -30.67, -187500.02, -187500.02, -21.52, -187500.02, 0.000, 0.000, 0.000, 13:39:48.907
72, 187500.00, -187500.02, 187500.00, -29.44, -187500.02, -187500.02, -20.12, -187500.02, 0.000, 0.000, 0.000, 13:39:48.907
73, 187500.00, -187500.02, 187500.00, -27.49, -187500.02, -187500.02, -17.93, -187500.02, 0.000, 0.000, 0.000, 13:39:48.907
74, 187500.00, -187500.02, 187500.00, -28.92, -187500.02, -187500.02, -19.69, -187500.02, 0.000, 0.000, 0.000, 13:39:48.908
75, 187500.00, -187500.02, 187500.00, -30.02, -187500.02, -187500.02, -20.88, -187500.02, 0.042, 0.120, 1.002, 13:39:48.908
76, 187500.00, -187500.02, 187500.00, -30.60, -187500.02, -187500.02, -21.39, -187500.02, 0.000, 0.000, 0.000, 13:39:48.908
77, 187500.00, -187500.02, 187500.00, -27.43, -187500.02, -187500.02, -18.13, -187500.02, 0.000, 0.000, 0.000, 13:39:48.909
78, 187500.00, -187500.02, 187500.00, -28.77, -187500.02, -187500.02, -19.65, -187500.02, 0.000, 0.000, 0.000, 13:39:48.909
79, 187500.00, -187500.02, 187500.00, -29.55, -187500.02, -187500.02, -20.27, -187500.02, 0.000, 0.000, 0.000, 13:39:48.909
80, 187500.00, -187500.02, 187500.00, -31.25, -187500.02, -187500.02, -21.93, -187500.02, 0.000, 0.000, 0.000, 13:39:48.909
81, 187500.00, -187500.02, 187500.00, -27.54, -187500.02, -187500.02, -17.84, -187500.02, 0.000, 0.000, 0.000, 13:39:48.910
82, 187500.00, -187500.02, 187500.00, -28.88, -187500.02, -187500.02, -19.54, -187500.02, 0.000, 0.000, 0.000, 13:39:48.910
83, 187500.00, -187500.02, 187500.00, -29.30, -187500.02, -187500.02, -19.78, -187500.02, 0.000, 0.000, 0.000, 13:39:48.910
84, 187500.00, -187500.02, 187500.00, -31.34, -187500.02, -187500.02, -22.28, -187500.02, 0.042, 0.116, 1.004, 13:39:48.911
85, 187500.00, -187500.02, 187500.00, -27.65, -187500.02, -187500.02, -18.46, -187500.02, 0.000, 0.000, 0.000, 13:39:48.911
86, 187500.00, -187500.02, 187500.00, -28.74, -187500.02, -187500.02, -19.45, -187500.02, 0.000, 0.000, 0.000, 13:39:48.911
87, 187500.00, -187500.02, 187500.00, -28.81, -187500.02, -187500.02, -19.71, -187500.02, 0.000, 0.000, 0.000, 13:39:48.912
88, 187500.00, -187500.02, 187500.00, -30.91, -187500.02, -187500.02, -22.11, -187500.02, 0.000, 0.000, 0.000, 13:39:48.912
89, 187500.00, -187500.02, 187500.00, -28.14, -187500.02, -187500.02, -18.89, -187500.02, 0.000, 0.000, 0.000, 13:39:48.912
90, 187500.00, -187500.02, 187500.00, -28.32, -187500.02, -187500.02, -18.91, -187500.02, 0.000, 0.000, 0.000, 13:39:48.919
91, 187500.00, -187500.02, 187500.00, -28.99, -187500.02, -187500.02, -19.83, -187500.02, 0.000, 0.000, 0.000, 13:39:48.919
92, 187500.00, -187500.02, 187500.00, -31.11, -187500.02, -187500.02, -21.97, -187500.02, 0.000, 0.000, 0.000, 13:39:48.919
93, 187500.00, -187500.02, 187500.00, -28.97, -187500.02, -187500.02, -19.74, -187500.02, 0.000, 0.000, 0.000, 13:39:48.920
94, 187500.00, -187500.02, 187500.00, -27.96, -187500.02, -187500.02, -18.48, -187500.02, 0.046, 0.118, 1.002, 13:39:48.920
95, 187500.00, -187500.02, 187500.00, -28.99, -187500.02, -187500.02, -19.76, -187500.02, 0.000, 0.000, 0.000, 13:39:48.920
96, 187500.00, -187500.02, 187500.00, -30.33, -187500.02, -187500.02, -21.61, -187500.02, 0.000, 0.000, 0.000, 13:39:48.921
97, 187500.00, -187500.02, 187500.00, -29.55, -187500.02, -187500.02, -20.90, -187500.02, 0.000, 0.000, 0.000, 13:39:48.921
98, 187500.00, -187500.02, 187500.00, -27.54, -187500.02, -187500.02, -18.60, -187500.02, 0.000, 0.000, 0.000, 13:39:48.921
99, 187500.00, -187500.02, 187500.00, -29.15, -187500.02, -187500.02, -19.96, -187500.02, 0.000, 0.000, 0.000, 13:39:48.922
100, 187500.00, -187500.02, 187500.00, -30.04, -187500.02, -187500.02, -20.83, -187500.02, 0.000, 0.000, 0.000, 13:39:48.922
101, 187500.00, -187500.02, 187500.00, -30.49, -187500.02, -187500.02, -21.50, -187500.02, 0.000, 0.000, 0.000, 13:39:48.922
102, 187500.00, -187500.02, 187500.00, -27.25, -187500.02, -187500.02, -18.04, -187500.02, 0.000, 0.000, 0.000, 13:39:48.923
103, 187500.00, -187500.02, 187500.00, -28.74, -187500.02, -187500.02, -19.36, -187500.02, 0.000, 0.000, 0.000, 13:39:48.923
104, 187500.00, -187500.02, 187500.00, -29.44, -187500.02, -187500.02, -19.98, -187500.02, 0.044, 0.118, 0.998, 13:39:48.923
105, 187500.00, -187500.02, 187500.00, -31.38, -187500.02, -187500.02, -22.15, -187500.02, 0.000, 0.000, 0.000, 13:39:48.924
106, 187500.00, -187500.02, 187500.00, -27.29, -187500.02, -187500.02, -17.84, -187500.02, 0.000, 0.000, 0.000, 13:39:49.352
107, 187500.00, -187500.02, 187500.00, -28.88, -187500.02, -187500.02, -19.13, -187500.02, 0.000, 0.000, 0.000, 13:39:49.353
108, 187500.00, -187500.02, 187500.00, -29.19, -187500.02, -187500.02, -19.87, -187500.02, 0.000, 0.000, 0.000, 13:39:49.353
109, 187500.00, -187500.02, 187500.00, -31.29, -187500.02, -187500.02, -22.17, -187500.02, 0.000, 0.000, 0.000, 13:39:49.354
110, 187500.00, -187500.02, 187500.00, -27.56, -187500.02, -187500.02, -18.57, -187500.02, 0.000, 0.000, 0.000, 13:39:49.354
111, 187500.00, -187500.02, 187500.00, -28.41, -187500.02, -187500.02, -19.51, -187500.02, 0.000, 0.000, 0.000, 13:39:49.354
112, 187500.00, -187500.02, 187500.00, -29.19, -187500.02, -187500.02, -19.80, -187500.02, 0.000, 0.000, 0.000, 13:39:49.355
113, 187500.00, -187500.02, 187500.00, -31.23, -187500.02, -187500.02, -21.99, -187500.02, 0.000, 0.000, 0.000, 13:39:49.355
114, 187500.00, -187500.02, 187500.00, -28.45, -187500.02, -187500.02, -19.04, -187500.02, 0.036, 0.118, 0.996, 13:39:49.355
115, 187500.00, -187500.02, 187500.00, -28.03, -187500.02, -187500.02, -19.09, -187500.02, 0.000, 0.000, 0.000, 13:39:49.355
116, 187500.00, -187500.02, 187500.00, -28.92, -187500.02, -187500.02, -19.98, -187500.02, 0.000, 0.000, 0.000, 13:39:49.356
117, 187500.00, -187500.02, 187500.00, -30.87, -187500.02, -187500.02, -21.73, -187500.02, 0.000, 0.000, 0.000, 13:39:49.356
118, 187500.00, -187500.02, 187500.00, -28.95, -187500.02, -187500.02, -19.87, -187500.02, 0.000, 0.000, 0.000, 13:39:49.356
119, 187500.00, -187500.02, 187500.00, -27.63, -187500.02, -187500.02, -18.35, -187500.02, 0.000, 0.000, 0.000, 13:39:49.357
120, 187500.00, -187500.02, 187500.00, -28.97, -187500.02, -187500.02, -19.74, -187500.02, 0.000, 0.000, 0.000, 13:39:49.357
121, 187500.00, -187500.02, 187500.00, -30.15, -187500.02, -187500.02, -21.23, -187500.02, 0.000, 0.000, 0.000, 13:39:49.357
122, 187500.00, -187500.02, 187500.00, -29.95, -187500.02, -187500.02, -20.81, -187500.02, 0.000, 0.000, 0.000, 13:39:49.357
123, 187500.00, -187500.02, 187500.00, -27.49, -187500.02, -187500.02, -18.10, -187500.02, 0.000, 0.000, 0.000, 13:39:49.358
124, 187500.00, -187500.02, 187500.00, -28.88, -187500.02, -187500.02, -19.83, -187500.02, 0.038, 0.122, 0.996, 13:39:49.358
125, 187500.00, -187500.02, 187500.00, -29.77, -187500.02, -187500.02, -20.70, -187500.02, 0.000, 0.000, 0.000, 13:39:49.358
126, 187500.00, -187500.02, 187500.00, -30.93, -187500.02, -187500.02, -21.64, -187500.02, 0.000, 0.000, 0.000, 13:39:49.359
127, 187500.00, -187500.02, 187500.00, -27.58, -187500.02, -187500.02, -18.26, -187500.02, 0.000, 0.000, 0.000, 13:39:49.359
128, 187500.00, -187500.02, 187500.00, -29.03, -187500.02, -187500.02, -19.65, -187500.02, 0.000, 0.000, 0.000, 13:39:49.359
129, 187500.00, -187500.02, 187500.00, -29.26, -187500.02, -187500.02, -20.21, -187500.02, 0.000, 0.000, 0.000, 13:39:49.359
130, 187500.00, -187500.02, 187500.00, -31.18, -187500.02, -187500.02, -22.37, -187500.02, 0.000, 0.000, 0.000, 13:39:49.360
131, 187500.00, -187500.02, 187500.00, -27.58, -187500.02, -187500.02, -18.13, -187500.02, 0.000, 0.000, 0.000, 13:39:49.360
132, 187500.00, -187500.02, 187500.00, -28.90, -187500.02, -187500.02, -19.38, -187500.02, 0.000, 0.000, 0.000, 13:39:49.360
133, 187500.00, -187500.02, 187500.00, -29.21, -187500.02, -187500.02, -20.07, -187500.02, 0.000, 0.000, 0.000, 13:39:49.361
134, 187500.00, -187500.02, 187500.00, -31.20, -187500.02, -187500.02, -22.49, -187500.02, 0.042, 0.124, 0.996, 13:39:49.361
135, 187500.00, -187500.02, 187500.00, -27.78, -187500.02, -187500.02, -18.93, -187500.02, 0.000, 0.000, 0.000, 13:39:49.361
136, 187500.00, -187500.02, 187500.00, -28.70, -187500.02, -187500.02, -19.40, -187500.02, 0.000, 0.000, 0.000, 13:39:49.362
137, 187500.00, -187500.02, 187500.00, -28.97, -187500.02, -187500.02, -19.92, -187500.02, 0.000, 0.000, 0.000, 13:39:49.363
138, 187500.00, -187500.02, 187500.00, -30.98, -187500.02, -187500.02, -21.99, -187500.02, 0.000, 0.000, 0.000, 13:39:49.364
139, 187500.00, -187500.02, 187500.00, -28.43, -187500.02, -187500.02, -19.31, -187500.02, 0.000, 0.000, 0.000, 13:39:49.364
140, 187500.00, -187500.02, 187500.00, -27.81, -187500.02, -187500.02, -19.04, -187500.02, 0.000, 0.000, 0.000, 13:39:49.364
141, 187500.00, -187500.02, 187500.00, -28.88, -187500.02, -187500.02, -19.96, -187500.02, 0.000, 0.000, 0.000, 13:39:49.365
142, 187500.00, -187500.02, 187500.00, -30.55, -187500.02, -187500.02, -21.61, -187500.02, 0.000, 0.000, 0.000, 13:39:49.365
143, 187500.00, -187500.02, 187500.00, -29.41, -187500.02, -187500.02, -20.27, -187500.02, 0.040, 0.122, 0.998, 13:39:49.365
144, 187500.00, -187500.02, 187500.00, -27.49, -187500.02, -187500.02, -18.53, -187500.02, 0.000, 0.000, 0.000, 13:39:49.366
145, 187500.00, -187500.02, 187500.00, -29.01, -187500.02, -187500.02, -19.98, -187500.02, 0.000, 0.000, 0.000, 13:39:49.366
146, 187500.00, -187500.02, 187500.00, -30.49, -187500.02, -187500.02, -21.21, -187500.02, 0.000, 0.000, 0.000, 13:39:49.366
147, 187500.00, -187500.02, 187500.00, -30.38, -187500.02, -187500.02, -21.30, -187500.02, 0.000, 0.000, 0.000, 13:39:49.366
148, 187500.00, -187500.02, 187500.00, -27.58, -187500.02, -187500.02, -18.35, -187500.02, 0.000, 0.000, 0.000, 13:39:49.367
149, 187500.00, -187500.02, 187500.00, -28.97, -187500.02, -187500.02, -20.00, -187500.02, 0.000, 0.000, 0.000, 13:39:49.367
150, 187500.00, -187500.02, 187500.00, -29.55, -187500.02, -187500.02, -20.43, -187500.02, 0.000, 0.000, 0.000, 13:39:49.367
151, 187500.00, -187500.02, 187500.00, -30.87, -187500.02, -187500.02, -22.13, -187500.02, 0.000, 0.000, 0.000, 13:39:49.368
152, 187500.00, -187500.02, 187500.00, -27.56, -187500.02, -187500.02, -18.31, -187500.02, 0.000, 0.000, 0.000, 13:39:49.368
153, 187500.00, -187500.02, 187500.00, -29.06, -187500.02, -187500.02, -19.65, -187500.02, 0.042, 0.120, 1.006, 13:39:49.368
154, 187500.00, -187500.02, 187500.00, -29.15, -187500.02, -187500.02, -19.96, -187500.02, 0.000, 0.000, 0.000, 13:39:49.368
155, 187500.00, -187500.02, 187500.00, -31.38, -187500.02, -187500.02, -22.44, -187500.02, 0.000, 0.000, 0.000, 13:39:49.369
156, 187500.00, -187500.02, 187500.00, -27.45, -187500.02, -187500.02, -18.69, -187500.02, 0.000, 0.000, 0.000, 13:39:49.369
157, 187500.00, -187500.02, 187500.00, -28.63, -187500.02, -187500.02, -19.47, -187500.02, 0.000, 0.000, 0.000, 13:39:49.369
158, 187500.00, -187500.02, 187500.00, -29.19, -187500.02, -187500.02, -19.94, -187500.02, 0.000, 0.000, 0.000, 13:39:49.370
159, 187500.00, -187500.02, 187500.00, -31.49, -187500.02, -187500.02, -22.26, -187500.02, 0.000, 0.000, 0.000, 13:39:49.370
160, 187500.00, -187500.02, 187500.00, -28.14, -187500.02, -187500.02, -18.64, -187500.02, 0.000, 0.000, 0.000, 13:39:49.370
161, 187500.00, -187500.02, 187500.00, -28.36, -187500.02, -187500.02, -19.09, -187500.02, 0.000, 0.000, 0.000, 13:39:49.370
162, 187500.00, -187500.02, 187500.00, -28.77, -187500.02, -187500.02, -19.65, -187500.02, 0.000, 0.000, 0.000, 13:39:49.371
163, 187500.00, -187500.02, 187500.00, -30.89, -187500.02, -187500.02, -21.82, -187500.02, 0.044, 0.118, 1.002, 13:39:49.371
164, 187500.00, -187500.02, 187500.00, -28.81, -187500.02, -187500.02, -19.42, -187500.02, 0.000, 0.000, 0.000, 13:39:49.371
165, 187500.00, -187500.02, 187500.00, -27.78, -187500.02, -187500.02, -18.57, -187500.02, 0.000, 0.000, 0.000, 13:39:49.371
166, 187500.00, -187500.02, 187500.00, -29.15, -187500.02, -187500.02, -19.83, -187500.02, 0.000, 0.000, 0.000, 13:39:49.372
167, 187500.00, -187500.02, 187500.00, -30.71, -187500.02, -187500.02, -21.26, -187500.02, 0.000, 0.000, 0.000, 13:39:49.372
168, 187500.00, -187500.02, 187500.00, -29.41, -187500.02, -187500.02, -20.54, -187500.02, 0.000, 0.000, 0.000, 13:39:49.372
169, 187500.00, -187500.02, 187500.00, -27.56, -187500.02, -187500.02, -18.35, -187500.02, 0.000, 0.000, 0.000, 13:39:49.373
170, 187500.00, -187500.02, 187500.00, -28.92, -187500.02, -187500.02, -19.54, -187500.02, 0.000, 0.000, 0.000, 13:39:49.373
171, 187500.00, -187500.02, 187500.00, -29.86, -187500.02, -187500.02, -20.76, -187500.02, 0.000, 0.000, 0.000, 13:39:49.373
172, 187500.00, -187500.02, 187500.00, -30.24, -187500.02, -187500.02, -21.21, -187500.02, 0.000, 0.000, 0.000, 13:39:49.373
173, 187500.00, -187500.02, 187500.00, -27.36, -187500.02, -187500.02, -18.02, -187500.02, 0.044, 0.118, 0.996, 13:39:49.374
174, 187500.00, -187500.02, 187500.00, -28.90, -187500.02, -187500.02, -19.56, -187500.02, 0.000, 0.000, 0.000, 13:39:49.374
175, 187500.00, -187500.02, 187500.00, -29.35, -187500.02, -187500.02, -20.25, -187500.02, 0.000, 0.000, 0.000, 13:39:49.374
176, 187500.00, -187500.02, 187500.00, -30.89, -187500.02, -187500.02, -21.82, -187500.02, 0.000, 0.000, 0.000, 13:39:49.375
177, 187500.00, -187500.02, 187500.00, -27.31, -187500.02, -187500.02, -17.99, -187500.02, 0.000, 0.000, 0.000, 13:39:49.375
178, 187500.00, -187500.02, 187500.00, -28.70, -187500.02, -187500.02, -19.60, -187500.02, 0.000, 0.000, 0.000, 13:39:49.375
179, 187500.00, -187500.02, 187500.00, -29.15, -187500.02, -187500.02, -19.92, -187500.02, 0.000, 0.000, 0.000, 13:39:49.375
180, 187500.00, -187500.02, 187500.00, -31.40, -187500.02, -187500.02, -22.26, -187500.02, 0.000, 0.000, 0.000, 13:39:49.376
181, 187500.00, -187500.02, 187500.00, -27.69, -187500.02, -187500.02, -18.60, -187500.02, 0.000, 0.000, 0.000, 13:39:49.376
182, 187500.00, -187500.02, 187500.00, -28.45, -187500.02, -187500.02, -19.47, -187500.02, 0.000, 0.000, 0.000, 13:39:49.376
183, 187500.00, -187500.02, 187500.00, -28.79, -187500.02, -187500.02, -19.76, -187500.02, 0.042, 0.122, 0.992, 13:39:49.376
184, 187500.00, -187500.02, 187500.00, -31.05, -187500.02, -187500.02, -22.13, -187500.02, 0.000, 0.000, 0.000, 13:39:49.377
185, 187500.00, -187500.02, 187500.00, -28.03, -187500.02, -187500.02, -18.93, -187500.02, 0.000, 0.000, 0.000, 13:39:49.377
186, 187500.00, -187500.02, 187500.00, -28.19, -187500.02, -187500.02, -19.24, -187500.02, 0.000, 0.000, 0.000, 13:39:49.377
187, 187500.00, -187500.02, 187500.00, -28.68, -187500.02, -187500.02, -20.07, -187500.02, 0.000, 0.000, 0.000, 13:39:49.378
188, 187500.00, -187500.02, 187500.00, -30.76, -187500.02, -187500.02, -21.99, -187500.02, 0.000, 0.000, 0.000, 13:39:49.378
189, 187500.00, -187500.02, 187500.00, -28.90, -187500.02, -187500.02, -19.85, -187500.02, 0.000, 0.000, 0.000, 13:39:49.378
190, 187500.00, -187500.02, 187500.00, -27.81, -187500.02, -187500.02, -18.48, -187500.02, 0.000, 0.000, 0.000, 13:39:49.378
191, 187500.00, -187500.02, 187500.00, -29.17, -187500.02, -187500.02, -19.92, -187500.02, 0.000, 0.000, 0.000, 13:39:49.379
192, 187500.00, -187500.02, 187500.00, -30.82, -187500.02, -187500.02, -21.39, -187500.02, 0.046, 0.120, 0.996, 13:39:49.379
193, 187500.00, -187500.02, 187500.00, -29.66, -187500.02, -187500.02, -20.52, -187500.02, 0.000, 0.000, 0.000, 13:39:49.379
194, 187500.00, -187500.02, 187500.00, -27.29, -187500.02, -187500.02, -18.22, -187500.02, 0.000, 0.000, 0.000, 13:39:49.380
195, 187500.00, -187500.02, 187500.00, -28.97, -187500.02, -187500.02, -19.71, -187500.02, 0.000, 0.000, 0.000, 13:39:49.380
196, 187500.00, -187500.02, 187500.00, -30.09, -187500.02, -187500.02, -20.63, -187500.02, 0.000, 0.000, 0.000, 13:39:49.380
197, 187500.00, -187500.02, 187500.00, -30.96, -187500.02, -187500.02, -21.55, -187500.02, 0.000, 0.000, 0.000, 13:39:49.381
198, 187500.00, -187500.02, 187500.00, -27.58, -187500.02, -187500.02, -18.10, -187500.02, 0.000, 0.000, 0.000, 13:39:49.381
199, 187500.00, -187500.02, 187500.00, -28.97, -187500.02, -187500.02, -20.03, -187500.02, 0.000, 0.000, 0.000, 13:39:49.381
200, 187500.00, -187500.02, 187500.00, -29.19, -187500.02, -187500.02, -19.94, -187500.02, 0.000, 0.000, 0.000, 13:39:49.382
201, 187500.00, -187500.02, 187500.00, -30.91, -187500.02, -187500.02, -21.93, -187500.02, 0.000, 0.000, 0.000, 13:39:49.382
202, 187500.00, -187500.02, 187500.00, -27.31, -187500.02, -187500.02, -18.13, -187500.02, 0.042, 0.118, 1.008, 13:39:49.382
203, 187500.00, -187500.02, 187500.00, -28.90, -187500.02, -187500.02, -19.33, -187500.02, 0.000, 0.000, 0.000, 13:39:49.383
204, 187500.00, -187500.02, 187500.00, -29.17, -187500.02, -187500.02, -19.80, -187500.02, 0.000, 0.000, 0.000, 13:39:49.383
205, 187500.00, -187500.02, 187500.00, -31.45, -187500.02, -187500.02, -22.28, -187500.02, 0.000, 0.000, 0.000, 13:39:49.383
206, 187500.00, -187500.02, 187500.00, -27.96, -187500.02, -187500.02, -18.44, -187500.02, 0.000, 0.000, 0.000, 13:39:49.384
207, 187500.00, -187500.02, 187500.00, -28.30, -187500.02, -187500.02, -19.07, -187500.02, 0.000, 0.000, 0.000, 13:39:49.384
208, 187500.00, -187500.02, 187500.00, -28.77, -187500.02, -187500.02, -19.65, -187500.02, 0.000, 0.000, 0.000, 13:39:49.384
209, 187500.00, -187500.02, 187500.00, -31.09, -187500.02, -187500.02, -22.15, -187500.02, 0.000, 0.000, 0.000, 13:39:49.384
210, 187500.00, -187500.02, 187500.00, -28.59, -187500.02, -187500.02, -19.20, -187500.02, 0.000, 0.000, 0.000, 13:39:49.385
211, 187500.00, -187500.02, 187500.00, -27.85, -187500.02, -187500.02, -18.89, -187500.02, 0.000, 0.000, 0.000, 13:39:49.385
212, 187500.00, -187500.02, 187500.00, -28.59, -187500.02, -187500.02, -19.94, -187500.02, 0.046, 0.120, 1.000, 13:39:49.385
213, 187500.00, -187500.02, 187500.00, -30.60, -187500.02, -187500.02, -21.66, -187500.02, 0.000, 0.000, 0.000, 13:39:49.385
214, 187500.00, -187500.02, 187500.00, -29.26, -187500.02, -187500.02, -19.94, -187500.02, 0.000, 0.000, 0.000, 13:39:49.386
215, 187500.00, -187500.02, 187500.00, -27.83, -187500.02, -187500.02, -18.42, -187500.02, 0.000, 0.000, 0.000, 13:39:49.386
216, 187500.00, -187500.02, 187500.00, -29.15, -187500.02, -187500.02, -19.83, -187500.02, 0.000, 0.000, 0.000, 13:39:49.386
217, 187500.00, -187500.02, 187500.00, -30.38, -187500.02, -187500.02, -21.17, -187500.02, 0.000, 0.000, 0.000, 13:39:49.387
218, 187500.00, -187500.02, 187500.00, -30.02, -187500.02, -187500.02, -20.99, -187500.02, 0.000, 0.000, 0.000, 13:39:49.387
219, 187500.00, -187500.02, 187500.00, -27.22, -187500.02, -187500.02, -18.08, -187500.02, 0.000, 0.000, 0.000, 13:39:49.387
220, 187500.00, -187500.02, 187500.00, -28.90, -187500.02, -187500.02, -19.60, -187500.02, 0.000, 0.000, 0.000, 13:39:49.388
221, 187500.00, -187500.02, 187500.00, -29.64, -187500.02, -187500.02, -20.32, -187500.02, 0.000, 0.000, 0.000, 13:39:49.388
222, 187500.00, -187500.02, 187500.00, -30.85, -187500.02, -187500.02, -21.99, -187500.02, 0.040, 0.116, 1.002, 13:39:49.388
223, 187500.00, -187500.02, 187500.00, -27.31, -187500.02, -187500.02, -18.31, -187500.02, 0.000, 0.000, 0.000, 13:39:49.389
224, 187500.00, -187500.02, 187500.00, -29.08, -187500.02, -187500.02, -19.83, -187500.02, 0.000, 0.000, 0.000, 13:39:49.389
225, 187500.00, -187500.02, 187500.00, -29.44, -187500.02, -187500.02, -20.27, -187500.02, 0.000, 0.000, 0.000, 13:39:49.389
226, 187500.00, -187500.02, 187500.00, -31.23, -187500.02, -187500.02, -22.37, -187500.02, 0.000, 0.000, 0.000, 13:39:49.832
227, 187500.00, -187500.02, 187500.00, -27.51, -187500.02, -187500.02, -18.22, -187500.02, 0.000, 0.000, 0.000, 13:39:49.833
228, 187500.00, -187500.02, 187500.00, -28.63, -187500.02, -187500.02, -19.36, -187500.02, 0.000, 0.000, 0.000, 13:39:49.833
229, 187500.00, -187500.02, 187500.00, -28.86, -187500.02, -187500.02, -19.54, -187500.02, 0.000, 0.000, 0.000, 13:39:49.834
230, 187500.00, -187500.02, 187500.00, -31.09, -187500.02, -187500.02, -22.08, -187500.02, 0.000, 0.000, 0.000, 13:39:49.834
231, 187500.00, -187500.02, 187500.00, -28.10, -187500.02, -187500.02, -18.60, -187500.02, 0.000, 0.000, 0.000, 13:39:49.834
232, 187500.00, -187500.02, 187500.00, -28.52, -187500.02, -187500.02, -19.36, -187500.02, 0.044, 0.114, 0.996, 13:39:49.835
233, 187500.00, -187500.02, 187500.00, -28.99, -187500.02, -187500.02, -19.92, -187500.02, 0.000, 0.000, 0.000, 13:39:49.835
234, 187500.00, -187500.02, 187500.00, -30.87, -187500.02, -187500.02, -21.88, -187500.02, 0.000, 0.000, 0.000, 13:39:49.835
235, 187500.00, -187500.02, 187500.00, -28.50, -187500.02, -187500.02, -19.24, -187500.02, 0.000, 0.000, 0.000, 13:39:49.835
236, 187500.00, -187500.02, 187500.00, -27.94, -187500.02, -187500.02, -18.89, -187500.02, 0.000, 0.000, 0.000, 13:39:49.836
237, 187500.00, -187500.02, 187500.00, -29.06, -187500.02, -187500.02, -19.69, -187500.02, 0.000, 0.000, 0.000, 13:39:49.836
238, 187500.00, -187500.02, 187500.00, -30.73, -187500.02, -187500.02, -21.44, -187500.02, 0.000, 0.000, 0.000, 13:39:49.836
239, 187500.00, -187500.02, 187500.00, -29.59, -187500.02, -187500.02, -20.45, -187500.02, 0.000, 0.000, 0.000, 13:39:49.837
240, 187500.00, -187500.02, 187500.00, -27.94, -187500.02, -187500.02, -18.42, -187500.02, 0.000, 0.000, 0.000, 13:39:49.837
241, 187500.00, -187500.02, 187500.00, -29.10, -187500.02, -187500.02, -19.78, -187500.02, 0.000, 0.000, 0.000, 13:39:49.837
242, 187500.00, -187500.02, 187500.00, -29.82, -187500.02, -187500.02, -20.94, -187500.02, 0.046, 0.116, 0.994, 13:39:49.837
243, 187500.00, -187500.02, 187500.00, -30.20, -187500.02, -187500.02, -21.17, -187500.02, 0.000, 0.000, 0.000, 13:39:49.837
244, 187500.00, -187500.02, 187500.00, -27.36, -187500.02, -187500.02, -18.19, -187500.02, 0.000, 0.000, 0.000, 13:39:49.838
245, 187500.00, -187500.02, 187500.00, -28.83, -187500.02, -187500.02, -19.98, -187500.02, 0.000, 0.000, 0.000, 13:39:49.838
246, 187500.00, -187500.02, 187500.00, -29.41, -187500.02, -187500.02, -20.50, -187500.02, 0.000, 0.000, 0.000, 13:39:49.838
247, 187500.00, -187500.02, 187500.00, -31.07, -187500.02, -187500.02, -22.26, -187500.02, 0.000, 0.000, 0.000, 13:39:49.838
248, 187500.00, -187500.02, 187500.00, -27.51, -187500.02, -187500.02, -18.10, -187500.02, 0.000, 0.000, 0.000, 13:39:49.838
249, 187500.00, -187500.02, 187500.00, -28.92, -187500.02, -187500.02, -19.62, -187500.02, 0.000, 0.000, 0.000, 13:39:49.839
250, 187500.00, -187500.02, 187500.00, -29.33, -187500.02, -187500.02, -20.05, -187500.02, 0.000, 0.000, 0.000, 13:39:49.839
251, 187500.00, -187500.02, 187500.00, -31.40, -187500.02, -187500.02, -22.33, -187500.02, 0.042, 0.118, 0.996, 13:39:49.839
252, 187500.00, -187500.02, 187500.00, -27.96, -187500.02, -187500.02, -18.37, -187500.02, 0.000, 0.000, 0.000, 13:39:49.840
253, 187500.00, -187500.02, 187500.00, -28.86, -187500.02, -187500.02, -19.31, -187500.02, 0.000, 0.000, 0.000, 13:39:49.840
254, 187500.00, -187500.02, 187500.00, -29.10, -187500.02, -187500.02, -19.78, -187500.02, 0.000, 0.000, 0.000, 13:39:49.840
255, 187500.00, -187500.02, 187500.00, -31.09, -187500.02, -187500.02, -22.20, -187500.02, 0.000, 0.000, 0.000, 13:39:49.840
0, 187500.00, -187500.02, 187500.00, -28.03, -187500.02, -187500.02, -18.82, -187500.02, 0.000, 0.000, 0.000, 13:39:49.840
1, 187500.00, -187500.02, 187500.00, -28.14, -187500.02, -187500.02, -19.04, -187500.02, 0.000, 0.000, 0.000, 13:39:49.841
2, 187500.00, -187500.02, 187500.00, -28.97, -187500.02, -187500.02, -19.87, -187500.02, 0.000, 0.000, 0.000, 13:39:49.841
3, 187500.00, -187500.02, 187500.00, -30.82, -187500.02, -187500.02, -22.15, -187500.02, 0.000, 0.000, 0.000, 13:39:49.841
4, 187500.00, -187500.02, 187500.00, -28.86, -187500.02, -187500.02, -19.76, -187500.02, 0.000, 0.000, 0.000, 13:39:49.842
5, 187500.00, -187500.02, 187500.00, -27.74, -187500.02, -187500.02, -18.71, -187500.02, 0.042, 0.118, 0.998, 13:39:49.842
6, 187500.00, -187500.02, 187500.00, -28.79, -187500.02, -187500.02, -19.60, -187500.02, 0.000, 0.000, 0.000, 13:39:49.842
7, 187500.00, -187500.02, 187500.00, -30.55, -187500.02, -187500.02, -21.17, -187500.02, 0.000, 0.000, 0.000, 13:39:49.842
8, 187500.00, -187500.02, 187500.00, -29.59, -187500.02, -187500.02, -20.45, -187500.02, 0.000, 0.000, 0.000, 13:39:49.843
9, 187500.00, -187500.02, 187500.00, -27.40, -187500.02, -187500.02, -18.51, -187500.02, 0.000, 0.000, 0.000, 13:39:49.843
10, 187500.00, -187500.02, 187500.00, -28.90, -187500.02, -187500.02, -19.87, -187500.02, 0.000, 0.000, 0.000, 13:39:49.843
11, 187500.00, -187500.02, 187500.00, -29.82, -187500.02, -187500.02, -20.88, -187500.02, 0.000, 0.000, 0.000, 13:39:49.843
12, 187500.00, -187500.02, 187500.00, -30.62, -187500.02, -187500.02, -21.46, -187500.02, 0.000, 0.000, 0.000, 13:39:49.844
13, 187500.00, -187500.02, 187500.00, -27.63, -187500.02, -187500.02, -17.97, -187500.02, 0.000, 0.000, 0.000, 13:39:49.844
14, 187500.00, -187500.02, 187500.00, -29.10, -187500.02, -187500.02, -19.60, -187500.02, 0.000, 0.000, 0.000, 13:39:49.844
15, 187500.00, -187500.02, 187500.00, -29.44, -187500.02, -187500.02, -20.05, -187500.02, 0.044, 0.120, 1.000, 13:39:49.844
16, 187500.00, -187500.02, 187500.00, -31.11, -187500.02, -187500.02, -21.82, -187500.02, 0.000, 0.000, 0.000, 13:39:49.844
17, 187500.00, -187500.02, 187500.00, -27.29, -187500.02, -187500.02, -18.04, -187500.02, 0.000, 0.000, 0.000, 13:39:49.844
18, 187500.00, -187500.02, 187500.00, -28.68, -187500.02, -187500.02, -19.71, -187500.02, 0.000, 0.000, 0.000, 13:39:49.845
19, 187500.00, -187500.02, 187500.00, -29.12, -187500.02, -187500.02, -20.00, -187500.02, 0.000, 0.000, 0.000, 13:39:49.845
20, 187500.00, -187500.02, 187500.00, -31.25, -187500.02, -187500.02, -22.11, -187500.02, 0.000, 0.000, 0.000, 13:39:49.845
21, 187500.00, -187500.02, 187500.00, -27.85, -187500.02, -187500.02, -18.55, -187500.02, 0.000, 0.000, 0.000, 13:39:49.845
22, 187500.00, -187500.02, 187500.00, -28.50, -187500.02, -187500.02, -19.13, -187500.02, 0.000, 0.000, 0.000, 13:39:49.845
23, 187500.00, -187500.02, 187500.00, -29.03, -187500.02, -187500.02, -19.45, -187500.02, 0.000, 0.000, 0.000, 13:39:49.846
24, 187500.00, -187500.02, 187500.00, -31.11, -187500.02, -187500.02, -22.06, -187500.02, 0.000, 0.000, 0.000, 13:39:49.846
25, 187500.00, -187500.02, 187500.00, -28.70, -187500.02, -187500.02, -18.82, -187500.02, 0.040, 0.120, 0.998, 13:39:49.846
26, 187500.00, -187500.02, 187500.00, -28.30, -187500.02, -187500.02, -18.82, -187500.02, 0.000, 0.000, 0.000, 13:39:49.846
27, 187500.00, -187500.02, 187500.00, -28.83, -187500.02, -187500.02, -19.85, -187500.02, 0.000, 0.000, 0.000, 13:39:49.846
28, 187500.00, -187500.02, 187500.00, -30.80, -187500.02, -187500.02, -22.13, -187500.02, 0.000, 0.000, 0.000, 13:39:49.847
29, 187500.00, -187500.02, 187500.00, -29.03, -187500.02, -187500.02, -20.05, -187500.02, 0.000, 0.000, 0.000, 13:39:49.847
30, 187500.00, -187500.02, 187500.00, -27.76, -187500.02, -187500.02, -18.57, -187500.02, 0.000, 0.000, 0.000, 13:39:49.847
31, 187500.00, -187500.02, 187500.00, -28.83, -187500.02, -187500.02, -19.85, -187500.02, 0.000, 0.000, 0.000, 13:39:49.848
32, 187500.00, -187500.02, 187500.00, -30.09, -187500.02, -187500.02, -21.23, -187500.02, 0.000, 0.000, 0.000, 13:39:49.848
33, 187500.00, -187500.02, 187500.00, -29.84, -187500.02, -187500.02, -20.72, -187500.02, 0.000, 0.000, 0.000, 13:39:49.848
34, 187500.00, -187500.02, 187500.00, -27.58, -187500.02, -187500.02, -18.13, -187500.02, 0.000, 0.000, 0.000, 13:39:49.848
35, 187500.00, -187500.02, 187500.00, -29.33, -187500.02, -187500.02, -19.83, -187500.02, 0.042, 0.120, 1.000, 13:39:49.849
36, 187500.00, -187500.02, 187500.00, -29.86, -187500.02, -187500.02, -20.90, -187500.02, 0.000, 0.000, 0.000, 13:39:49.849
37, 187500.00, -187500.02, 187500.00, -30.76, -187500.02, -187500.02, -21.57, -187500.02, 0.000, 0.000, 0.000, 13:39:49.849
38, 187500.00, -187500.02, 187500.00, -27.31, -187500.02, -187500.02, -17.97, -187500.02, 0.000, 0.000, 0.000, 13:39:49.850
39, 187500.00, -187500.02, 187500.00, -28.72, -187500.02, -187500.02, -19.87, -187500.02, 0.000, 0.000, 0.000, 13:39:49.850
40, 187500.00, -187500.02, 187500.00, -29.46, -187500.02, -187500.02, -20.30, -187500.02, 0.000, 0.000, 0.000, 13:39:49.850
41, 187500.00, -187500.02, 187500.00, -31.11, -187500.02, -187500.02, -21.99, -187500.02, 0.000, 0.000, 0.000, 13:39:49.850
42, 187500.00, -187500.02, 187500.00, -27.43, -187500.02, -187500.02, -18.15, -187500.02, 0.000, 0.000, 0.000, 13:39:49.851
43, 187500.00, -187500.02, 187500.00, -28.74, -187500.02, -187500.02, -19.51, -187500.02, 0.000, 0.000, 0.000, 13:39:49.851
44, 187500.00, -187500.02, 187500.00, -29.28, -187500.02, -187500.02, -20.34, -187500.02, 0.000, 0.000, 0.000, 13:39:49.851
45, 187500.00, -187500.02, 187500.00, -31.38, -187500.02, -187500.02, -22.49, -187500.02, 0.042, 0.118, 0.994, 13:39:49.851
46, 187500.00, -187500.02, 187500.00, -27.74, -187500.02, -187500.02, -18.64, -187500.02, 0.000, 0.000, 0.000, 13:39:49.851
47, 187500.00, -187500.02, 187500.00, -28.21, -187500.02, -187500.02, -19.54, -187500.02, 0.000, 0.000, 0.000, 13:39:49.852
48, 187500.00, -187500.02, 187500.00, -28.83, -187500.02, -187500.02, -19.92, -187500.02, 0.000, 0.000, 0.000, 13:39:49.852
49, 187500.00, -187500.02, 187500.00, -31.05, -187500.02, -187500.02, -22.24, -187500.02, 0.000, 0.000, 0.000, 13:39:49.852
50, 187500.00, -187500.02, 187500.00, -28.36, -187500.02, -187500.02, -19.45, -187500.02, 0.000, 0.000, 0.000, 13:39:49.852
51, 187500.00, -187500.02, 187500.00, -28.30, -187500.02, -187500.02, -18.82, -187500.02, 0.000, 0.000, 0.000, 13:39:49.852
52, 187500.00, -187500.02, 187500.00, -28.90, -187500.02, -187500.02, -19.42, -187500.02, 0.000, 0.000, 0.000, 13:39:49.852
53, 187500.00, -187500.02, 187500.00, -30.87, -187500.02, -187500.02, -21.64, -187500.02, 0.000, 0.000, 0.000, 13:39:49.853
54, 187500.00, -187500.02, 187500.00, -29.55, -187500.02, -187500.02, -20.32, -187500.02, 0.042, 0.120, 0.996, 13:39:49.853
55, 187500.00, -187500.02, 187500.00, -28.16, -187500.02, -187500.02, -18.42, -187500.02, 0.000, 0.000, 0.000, 13:39:49.853
56, 187500.00, -187500.02, 187500.00, -29.26, -187500.02, -187500.02, -19.65, -187500.02, 0.000, 0.000, 0.000, 13:39:49.853
57, 187500.00, -187500.02, 187500.00, -30.24, -187500.02, -187500.02, -21.01, -187500.02, 0.000, 0.000, 0.000, 13:39:49.853
58, 187500.00, -187500.02, 187500.00, -30.22, -187500.02, -187500.02, -21.26, -187500.02, 0.000, 0.000, 0.000, 13:39:49.854
59, 187500.00, -187500.02, 187500.00, -27.25, -187500.02, -187500.02, -18.24, -187500.02, 0.000, 0.000, 0.000, 13:39:49.854
60, 187500.00, -187500.02, 187500.00, -29.08, -187500.02, -187500.02, -19.89, -187500.02, 0.000, 0.000, 0.000, 13:39:49.854
61, 187500.00, -187500.02, 187500.00, -29.64, -187500.02, -187500.02, -20.47, -187500.02, 0.000, 0.000, 0.000, 13:39:49.854
62, 187500.00, -187500.02, 187500.00, -31.07, -187500.02, -187500.02, -21.90, -187500.02, 0.000, 0.000, 0.000, 13:39:49.854
63, 187500.00, -187500.02, 187500.00, -27.36, -187500.02, -187500.02, -18.04, -187500.02, 0.000, 0.000, 0.000, 13:39:49.854
64, 187500.00, -187500.02, 187500.00, -28.86, -187500.02, -187500.02, -19.78, -187500.02, 0.040, 0.122, 1.000, 13:39:49.855
65, 187500.00, -187500.02, 187500.00, -29.28, -187500.02, -187500.02, -20.16, -187500.02, 0.000, 0.000, 0.000, 13:39:49.855
66, 187500.00, -187500.02, 187500.00, -31.02, -187500.02, -187500.02, -22.28, -187500.02, 0.000, 0.000, 0.000, 13:39:49.855
67, 187500.00, -187500.02, 187500.00, -27.54, -187500.02, -187500.02, -18.42, -187500.02, 0.000, 0.000, 0.000, 13:39:49.855
68, 187500.00, -187500.02, 187500.00, -28.83, -187500.02, -187500.02, -19.49, -187500.02, 0.000, 0.000, 0.000, 13:39:49.855
69, 187500.00, -187500.02, 187500.00, -28.95, -187500.02, -187500.02, -19.98, -187500.02, 0.000, 0.000, 0.000, 13:39:49.856
70, 187500.00, -187500.02, 187500.00, -31.23, -187500.02, -187500.02, -22.35, -187500.02, 0.000, 0.000, 0.000, 13:39:49.856
71, 187500.00, -187500.02, 187500.00, -27.92, -187500.02, -187500.02, -18.93, -187500.02, 0.000, 0.000, 0.000, 13:39:49.856
72, 187500.00, -187500.02, 187500.00, -28.43, -187500.02, -187500.02, -19.16, -187500.02, 0.000, 0.000, 0.000, 13:39:49.856
73, 187500.00, -187500.02, 187500.00, -28.88, -187500.02, -187500.02, -19.47, -187500.02, 0.000, 0.000, 0.000, 13:39:49.856
74, 187500.00, -187500.02, 187500.00, -30.91, -187500.02, -187500.02, -21.75, -187500.02, 0.034, 0.118, 0.996, 13:39:49.856
75, 187500.00, -187500.02, 187500.00, -28.52, -187500.02, -187500.02, -19.65, -187500.02, 0.000, 0.000, 0.000, 13:39:49.857
76, 187500.00, -187500.02, 187500.00, -27.74, -187500.02, -187500.02, -18.93, -187500.02, 0.000, 0.000, 0.000, 13:39:49.857
77, 187500.00, -187500.02, 187500.00, -29.03, -187500.02, -187500.02, -19.80, -187500.02, 0.000, 0.000, 0.000, 13:39:49.857
78, 187500.00, -187500.02, 187500.00, -30.80, -187500.02, -187500.02, -21.52, -187500.02, 0.000, 0.000, 0.000, 13:39:49.857
79, 187500.00, -187500.02, 187500.00, -29.75, -187500.02, -187500.02, -20.36, -187500.02, 0.000, 0.000, 0.000, 13:39:49.857
80, 187500.00, -187500.02, 187500.00, -28.05, -187500.02, -187500.02, -18.37, -187500.02, 0.000, 0.000, 0.000, 13:39:49.858
81, 187500.00, -187500.02, 187500.00, -28.99, -187500.02, -187500.02, -19.80, -187500.02, 0.000, 0.000, 0.000, 13:39:49.858
82, 187500.00, -187500.02, 187500.00, -29.93, -187500.02, -187500.02, -21.06, -187500.02, 0.000, 0.000, 0.000, 13:39:49.858
83, 187500.00, -187500.02, 187500.00, -30.60, -187500.02, -187500.02, -21.32, -187500.02, 0.000, 0.000, 0.000, 13:39:49.858
84, 187500.00, -187500.02, 187500.00, -27.54, -187500.02, -187500.02, -18.35, -187500.02, 0.038, 0.118, 1.000, 13:39:49.858
85, 187500.00, -187500.02, 187500.00, -28.86, -187500.02, -187500.02, -19.76, -187500.02, 0.000, 0.000, 0.000, 13:39:49.859
86, 187500.00, -187500.02, 187500.00, -29.55, -187500.02, -187500.02, -20.09, -187500.02, 0.000, 0.000, 0.000, 13:39:49.859
87, 187500.00, -187500.02, 187500.00, -30.93, -187500.02, -187500.02, -21.86, -187500.02, 0.000, 0.000, 0.000, 13:39:49.859
88, 187500.00, -187500.02, 187500.00, -27.58, -187500.02, -187500.02, -18.02, -187500.02, 0.000, 0.000, 0.000, 13:39:49.859
89, 187500.00, -187500.02, 187500.00, -29.19, -187500.02, -187500.02, -19.36, -187500.02, 0.000, 0.000, 0.000, 13:39:49.859
90, 187500.00, -187500.02, 187500.00, -29.53, -187500.02, -187500.02, -19.56, -187500.02, 0.000, 0.000, 0.000, 13:39:50.313
91, 187500.00, -187500.02, 187500.00, -31.25, -187500.02, -187500.02, -22.13, -187500.02, 0.000, 0.000, 0.000, 13:39:50.313
92, 187500.00, -187500.02, 187500.00, -27.56, -187500.02, -187500.02, -18.53, -187500.02, 0.000, 0.000, 0.000, 13:39:50.314
93, 187500.00, -187500.02, 187500.00, -28.59, -187500.02, -187500.02, -19.33, -187500.02, 0.000, 0.000, 0.000, 13:39:50.314
94, 187500.00, -187500.02, 187500.00, -28.86, -187500.02, -187500.02, -19.87, -187500.02, 0.036, 0.120, 0.996, 13:39:50.314
95, 187500.00, -187500.02, 187500.00, -31.20, -187500.02, -187500.02, -22.31, -187500.02, 0.000, 0.000, 0.000, 13:39:50.314
96, 187500.00, -187500.02, 187500.00, -28.30, -187500.02, -187500.02, -18.95, -187500.02, 0.000, 0.000, 0.000, 13:39:50.315
97, 187500.00, -187500.02, 187500.00, -28.50, -187500.02, -187500.02, -19.16, -187500.02, 0.000, 0.000, 0.000, 13:39:50.315
98, 187500.00, -187500.02, 187500.00, -29.19, -187500.02, -187500.02, -19.87, -187500.02, 0.000, 0.000, 0.000, 13:39:50.315
99, 187500.00, -187500.02, 187500.00, -30.76, -187500.02, -187500.02, -21.84, -187500.02, 0.000, 0.000, 0.000, 13:39:50.315
100, 187500.00, -187500.02, 187500.00, -28.68, -187500.02, -187500.02, -19.69, -187500.02, 0.000, 0.000, 0.000, 13:39:50.316
101, 187500.00, -187500.02, 187500.00, -27.83, -187500.02, -187500.02, -18.60, -187500.02, 0.000, 0.000, 0.000, 13:39:50.316
102, 187500.00, -187500.02, 187500.00, -28.86, -187500.02, -187500.02, -19.71, -187500.02, 0.000, 0.000, 0.000, 13:39:50.316
103, 187500.00, -187500.02, 187500.00, -30.47, -187500.02, -187500.02, -21.17, -187500.02, 0.040, 0.118, 0.996, 13:39:50.317
104, 187500.00, -187500.02, 187500.00, -29.86, -187500.02, -187500.02, -20.56, -187500.02, 0.000, 0.000, 0.000, 13:39:50.317
105, 187500.00, -187500.02, 187500.00, -27.51, -187500.02, -187500.02, -18.04, -187500.02, 0.000, 0.000, 0.000, 13:39:50.317
106, 187500.00, -187500.02, 187500.00, -28.92, -187500.02, -187500.02, -19.40, -187500.02, 0.000, 0.000, 0.000, 13:39:50.317
107, 187500.00, -187500.02, 187500.00, -29.82, -187500.02, -187500.02, -21.01, -187500.02, 0.000, 0.000, 0.000, 13:39:50.317
108, 187500.00, -187500.02, 187500.00, -30.51, -187500.02, -187500.02, -21.70, -187500.02, 0.000, 0.000, 0.000, 13:39:50.318
109, 187500.00, -187500.02, 187500.00, -27.54, -187500.02, -187500.02, -18.15, -187500.02, 0.000, 0.000, 0.000, 13:39:50.318
110, 187500.00, -187500.02, 187500.00, -28.92, -187500.02, -187500.02, -19.69, -187500.02, 0.000, 0.000, 0.000, 13:39:50.318
111, 187500.00, -187500.02, 187500.00, -29.53, -187500.02, -187500.02, -20.14, -187500.02, 0.000, 0.000, 0.000, 13:39:50.318
112, 187500.00, -187500.02, 187500.00, -31.23, -187500.02, -187500.02, -22.13, -187500.02, 0.000, 0.000, 0.000, 13:39:50.318
113, 187500.00, -187500.02, 187500.00, -27.54, -187500.02, -187500.02, -18.28, -187500.02, 0.038, 0.118, 0.994, 13:39:50.319
114, 187500.00, -187500.02, 187500.00, -28.97, -187500.02, -187500.02, -19.74, -187500.02, 0.000, 0.000, 0.000, 13:39:50.319
115, 187500.00, -187500.02, 187500.00, -29.19, -187500.02, -187500.02, -19.92, -187500.02, 0.000, 0.000, 0.000, 13:39:50.319
116, 187500.00, -187500.02, 187500.00, -31.25, -187500.02, -187500.02, -22.26, -187500.02, 0.000, 0.000, 0.000, 13:39:50.319
117, 187500.00, -187500.02, 187500.00, -27.87, -187500.02, -187500.02, -18.40, -187500.02, 0.000, 0.000, 0.000, 13:39:50.320
118, 187500.00, -187500.02, 187500.00, -28.48, -187500.02, -187500.02, -19.11, -187500.02, 0.000, 0.000, 0.000, 13:39:50.320
119, 187500.00, -187500.02, 187500.00, -29.10, -187500.02, -187500.02, -19.80, -187500.02, 0.000, 0.000, 0.000, 13:39:50.320
120, 187500.00, -187500.02, 187500.00, -31.23, -187500.02, -187500.02, -22.17, -187500.02, 0.000, 0.000, 0.000, 13:39:50.320
121, 187500.00, -187500.02, 187500.00, -28.32, -187500.02, -187500.02, -19.24, -187500.02, 0.000, 0.000, 0.000, 13:39:50.321
122, 187500.00, -187500.02, 187500.00, -28.10, -187500.02, -187500.02, -18.98, -187500.02, 0.000, 0.000, 0.000, 13:39:50.321
123, 187500.00, -187500.02, 187500.00, -28.90, -187500.02, -187500.02, -19.96, -187500.02, 0.040, 0.118, 1.002, 13:39:50.321
124, 187500.00, -187500.02, 187500.00, -30.67, -187500.02, -187500.02, -21.88, -187500.02, 0.000, 0.000, 0.000, 13:39:50.321
125, 187500.00, -187500.02, 187500.00, -29.21, -187500.02, -187500.02, -19.92, -187500.02, 0.000, 0.000, 0.000, 13:39:50.322
126, 187500.00, -187500.02, 187500.00, -27.85, -187500.02, -187500.02, -18.46, -187500.02, 0.000, 0.000, 0.000, 13:39:50.322
127, 187500.00, -187500.02, 187500.00, -28.86, -187500.02, -187500.02, -19.60, -187500.02, 0.000, 0.000, 0.000, 13:39:50.322
128, 187500.00, -187500.02, 187500.00, -30.11, -187500.02, -187500.02, -20.94, -187500.02, 0.000, 0.000, 0.000, 13:39:50.322
129, 187500.00, -187500.02, 187500.00, -29.82, -187500.02, -187500.02, -20.83, -187500.02, 0.000, 0.000, 0.000, 13:39:50.323
130, 187500.00, -187500.02, 187500.00, -27.25, -187500.02, -187500.02, -18.13, -187500.02, 0.000, 0.000, 0.000, 13:39:50.323
131, 187500.00, -187500.02, 187500.00, -28.92, -187500.02, -187500.02, -19.94, -187500.02, 0.000, 0.000, 0.000, 13:39:50.323
132, 187500.00, -187500.02, 187500.00, -29.82, -187500.02, -187500.02, -20.94, -187500.02, 0.000, 0.000, 0.000, 13:39:50.323
133, 187500.00, -187500.02, 187500.00, -30.62, -187500.02, -187500.02, -21.86, -187500.02, 0.040, 0.120, 1.002, 13:39:50.324
134, 187500.00, -187500.02, 187500.00, -27.25, -187500.02, -187500.02, -18.08, -187500.02, 0.000, 0.000, 0.000, 13:39:50.324
135, 187500.00, -187500.02, 187500.00, -28.86, -187500.02, -187500.02, -19.62, -187500.02, 0.000, 0.000, 0.000, 13:39:50.324
136, 187500.00, -187500.02, 187500.00, -29.08, -187500.02, -187500.02, -19.98, -187500.02, 0.000, 0.000, 0.000, 13:39:50.324
137, 187500.00, -187500.02, 187500.00, -31.23, -187500.02, -187500.02, -22.15, -187500.02, 0.000, 0.000, 0.000, 13:39:50.325
138, 187500.00, -187500.02, 187500.00, -27.54, -187500.02, -187500.02, -18.26, -187500.02, 0.000, 0.000, 0.000, 13:39:50.325
139, 187500.00, -187500.02, 187500.00, -28.77, -187500.02, -187500.02, -19.67, -187500.02, 0.000, 0.000, 0.000, 13:39:50.325
140, 187500.00, -187500.02, 187500.00, -28.99, -187500.02, -187500.02, -19.92, -187500.02, 0.000, 0.000, 0.000, 13:39:50.325
141, 187500.00, -187500.02, 187500.00, -31.11, -187500.02, -187500.02, -22.13, -187500.02, 0.000, 0.000, 0.000, 13:39:50.326
142, 187500.00, -187500.02, 187500.00, -28.19, -187500.02, -187500.02, -18.48, -187500.02, 0.000, 0.000, 0.000, 13:39:50.326
143, 187500.00, -187500.02, 187500.00, -28.50, -187500.02, -187500.02, -19.04, -187500.02, 0.040, 0.122, 1.006, 13:39:50.326
144, 187500.00, -187500.02, 187500.00, -28.77, -187500.02, -187500.02, -19.76, -187500.02, 0.000, 0.000, 0.000, 13:39:50.326
145, 187500.00, -187500.02, 187500.00, -31.25, -187500.02, -187500.02, -22.11, -187500.02, 0.000, 0.000, 0.000, 13:39:50.327
146, 187500.00, -187500.02, 187500.00, -28.81, -187500.02, -187500.02, -19.31, -187500.02, 0.000, 0.000, 0.000, 13:39:50.327
147, 187500.00, -187500.02, 187500.00, -28.05, -187500.02, -187500.02, -18.98, -187500.02, 0.000, 0.000, 0.000, 13:39:50.327
148, 187500.00, -187500.02, 187500.00, -28.86, -187500.02, -187500.02, -19.65, -187500.02, 0.000, 0.000, 0.000, 13:39:50.328
149, 187500.00, -187500.02, 187500.00, -30.67, -187500.02, -187500.02, -21.44, -187500.02, 0.000, 0.000, 0.000, 13:39:50.328
150, 187500.00, -187500.02, 187500.00, -29.30, -187500.02, -187500.02, -20.27, -187500.02, 0.000, 0.000, 0.000, 13:39:50.328
151, 187500.00, -187500.02, 187500.00, -27.72, -187500.02, -187500.02, -18.73, -187500.02, 0.000, 0.000, 0.000, 13:39:50.328
152, 187500.00, -187500.02, 187500.00, -29.01, -187500.02, -187500.02, -19.94, -187500.02, 0.000, 0.000, 0.000, 13:39:50.329
153, 187500.00, -187500.02, 187500.00, -30.20, -187500.02, -187500.02, -20.92, -187500.02, 0.038, 0.120, 1.002, 13:39:50.329
154, 187500.00, -187500.02, 187500.00, -30.44, -187500.02, -187500.02, -21.28, -187500.02, 0.000, 0.000, 0.000, 13:39:50.329
155, 187500.00, -187500.02, 187500.00, -27.69, -187500.02, -187500.02, -18.44, -187500.02, 0.000, 0.000, 0.000, 13:39:50.330
156, 187500.00, -187500.02, 187500.00, -29.08, -187500.02, -187500.02, -20.09, -187500.02, 0.000, 0.000, 0.000, 13:39:50.330
157, 187500.00, -187500.02, 187500.00, -29.44, -187500.02, -187500.02, -20.56, -187500.02, 0.000, 0.000, 0.000, 13:39:50.330
158, 187500.00, -187500.02, 187500.00, -30.71, -187500.02, -187500.02, -22.24, -187500.02, 0.000, 0.000, 0.000, 13:39:50.330
159, 187500.00, -187500.02, 187500.00, -27.31, -187500.02, -187500.02, -18.26, -187500.02, 0.000, 0.000, 0.000, 13:39:50.331
160, 187500.00, -187500.02, 187500.00, -28.81, -187500.02, -187500.02, -19.51, -187500.02, 0.000, 0.000, 0.000, 13:39:50.331
161, 187500.00, -187500.02, 187500.00, -28.90, -187500.02, -187500.02, -20.05, -187500.02, 0.000, 0.000, 0.000, 13:39:50.331
162, 187500.00, -187500.02, 187500.00, -31.16, -187500.02, -187500.02, -22.31, -187500.02, 0.036, 0.116, 0.994, 13:39:50.332
163, 187500.00, -187500.02, 187500.00, -27.81, -187500.02, -187500.02, -18.69, -187500.02, 0.000, 0.000, 0.000, 13:39:50.332
164, 187500.00, -187500.02, 187500.00, -28.77, -187500.02, -187500.02, -19.29, -187500.02, 0.000, 0.000, 0.000, 13:39:50.332
165, 187500.00, -187500.02, 187500.00, -29.01, -187500.02, -187500.02, -19.60, -187500.02, 0.000, 0.000, 0.000, 13:39:50.332
166, 187500.00, -187500.02, 187500.00, -31.07, -187500.02, -187500.02, -22.08, -187500.02, 0.000, 0.000, 0.000, 13:39:50.333
167, 187500.00, -187500.02, 187500.00, -28.10, -187500.02, -187500.02, -18.82, -187500.02, 0.000, 0.000, 0.000, 13:39:50.333
168, 187500.00, -187500.02, 187500.00, -28.30, -187500.02, -187500.02, -19.27, -187500.02, 0.000, 0.000, 0.000, 13:39:50.333
169, 187500.00, -187500.02, 187500.00, -29.01, -187500.02, -187500.02, -19.89, -187500.02, 0.000, 0.000, 0.000, 13:39:50.334
170, 187500.00, -187500.02, 187500.00, -30.89, -187500.02, -187500.02, -21.75, -187500.02, 0.000, 0.000, 0.000, 13:39:50.334
171, 187500.00, -187500.02, 187500.00, -28.65, -187500.02, -187500.02, -19.65, -187500.02, 0.000, 0.000, 0.000, 13:39:50.334
172, 187500.00, -187500.02, 187500.00, -27.81, -187500.02, -187500.02, -18.75, -187500.02, 0.040, 0.118, 0.996, 13:39:50.334
173, 187500.00, -187500.02, 187500.00, -29.01, -187500.02, -187500.02, -19.71, -187500.02, 0.000, 0.000, 0.000, 13:39:50.335
174, 187500.00, -187500.02, 187500.00, -30.67, -187500.02, -187500.02, -21.66, -187500.02, 0.000, 0.000, 0.000, 13:39:50.335
175, 187500.00, -187500.02, 187500.00, -29.84, -187500.02, -187500.02, -20.43, -187500.02, 0.000, 0.000, 0.000, 13:39:50.335
176, 187500.00, -187500.02, 187500.00, -27.58, -187500.02, -187500.02, -18.22, -187500.02, 0.000, 0.000, 0.000, 13:39:50.335
177, 187500.00, -187500.02, 187500.00, -28.79, -187500.02, -187500.02, -19.58, -187500.02, 0.000, 0.000, 0.000, 13:39:50.336
178, 187500.00, -187500.02, 187500.00, -30.02, -187500.02, -187500.02, -20.92, -187500.02, 0.000, 0.000, 0.000, 13:39:50.336
179, 187500.00, -187500.02, 187500.00, -30.26, -187500.02, -187500.02, -21.59, -187500.02, 0.000, 0.000, 0.000, 13:39:50.336
180, 187500.00, -187500.02, 187500.00, -27.31, -187500.02, -187500.02, -18.15, -187500.02, 0.000, 0.000, 0.000, 13:39:50.337
181, 187500.00, -187500.02, 187500.00, -29.21, -187500.02, -187500.02, -19.92, -187500.02, 0.000, 0.000, 0.000, 13:39:50.337
182, 187500.00, -187500.02, 187500.00, -29.64, -187500.02, -187500.02, -20.43, -187500.02, 0.042, 0.116, 0.998, 13:39:50.337
183, 187500.00, -187500.02, 187500.00, -31.18, -187500.02, -187500.02, -21.86, -187500.02, 0.000, 0.000, 0.000, 13:39:50.337
184, 187500.00, -187500.02, 187500.00, -27.69, -187500.02, -187500.02, -18.06, -187500.02, 0.000, 0.000, 0.000, 13:39:50.338
185, 187500.00, -187500.02, 187500.00, -28.97, -187500.02, -187500.02, -19.80, -187500.02, 0.000, 0.000, 0.000, 13:39:50.338
186, 187500.00, -187500.02, 187500.00, -28.88, -187500.02, -187500.02, -20.03, -187500.02, 0.000, 0.000, 0.000, 13:39:50.338
187, 187500.00, -187500.02, 187500.00, -31.05, -187500.02, -187500.02, -22.35, -187500.02, 0.000, 0.000, 0.000, 13:39:50.338
188, 187500.00, -187500.02, 187500.00, -27.76, -187500.02, -187500.02, -18.64, -187500.02, 0.000, 0.000, 0.000, 13:39:50.338
189, 187500.00, -187500.02, 187500.00, -28.65, -187500.02, -187500.02, -19.47, -187500.02, 0.000, 0.000, 0.000, 13:39:50.339
190, 187500.00, -187500.02, 187500.00, -29.08, -187500.02, -187500.02, -19.80, -187500.02, 0.000, 0.000, 0.000, 13:39:50.339
191, 187500.00, -187500.02, 187500.00, -31.27, -187500.02, -187500.02, -22.22, -187500.02, 0.000, 0.000, 0.000, 13:39:50.339
192, 187500.00, -187500.02, 187500.00, -28.30, -187500.02, -187500.02, -19.04, -187500.02, 0.048, 0.116, 0.998, 13:39:50.340
193, 187500.00, -187500.02, 187500.00, -28.36, -187500.02, -187500.02, -19.09, -187500.02, 0.000, 0.000, 0.000, 13:39:50.340
194, 187500.00, -187500.02, 187500.00, -29.12, -187500.02, -187500.02, -19.29, -187500.02, 0.000, 0.000, 0.000, 13:39:50.340
195, 187500.00, -187500.02, 187500.00, -30.89, -187500.02, -187500.02, -21.50, -187500.02, 0.000, 0.000, 0.000, 13:39:50.340
196, 187500.00, -187500.02, 187500.00, -29.03, -187500.02, -187500.02, -19.98, -187500.02, 0.000, 0.000, 0.000, 13:39:50.341
197, 187500.00, -187500.02, 187500.00, -27.92, -187500.02, -187500.02, -18.82, -187500.02, 0.000, 0.000, 0.000, 13:39:50.341
198, 187500.00, -187500.02, 187500.00, -29.10, -187500.02, -187500.02, -19.76, -187500.02, 0.000, 0.000, 0.000, 13:39:50.341
199, 187500.00, -187500.02, 187500.00, -30.49, -187500.02, -187500.02, -21.32, -187500.02, 0.000, 0.000, 0.000, 13:39:50.341
200, 187500.00, -187500.02, 187500.00, -29.66, -187500.02, -187500.02, -20.65, -187500.02, 0.000, 0.000, 0.000, 13:39:50.342
201, 187500.00, -187500.02, 187500.00, -27.36, -187500.02, -187500.02, -18.33, -187500.02, 0.000, 0.000, 0.000, 13:39:50.342
202, 187500.00, -187500.02, 187500.00, -28.97, -187500.02, -187500.02, -19.76, -187500.02, 0.050, 0.118, 0.998, 13:39:50.342
203, 187500.00, -187500.02, 187500.00, -30.04, -187500.02, -187500.02, -20.83, -187500.02, 0.000, 0.000, 0.000, 13:39:50.342
204, 187500.00, -187500.02, 187500.00, -30.60, -187500.02, -187500.02, -21.61, -187500.02, 0.000, 0.000, 0.000, 13:39:50.342
205, 187500.00, -187500.02, 187500.00, -27.74, -187500.02, -187500.02, -18.37, -187500.02, 0.000, 0.000, 0.000, 13:39:50.342
206, 187500.00, -187500.02, 187500.00, -29.26, -187500.02, -187500.02, -20.09, -187500.02, 0.000, 0.000, 0.000, 13:39:50.343
207, 187500.00, -187500.02, 187500.00, -29.28, -187500.02, -187500.02, -20.16, -187500.02, 0.000, 0.000, 0.000, 13:39:50.343
208, 187500.00, -187500.02, 187500.00, -31.00, -187500.02, -187500.02, -22.17, -187500.02, 0.000, 0.000, 0.000, 13:39:50.343
209, 187500.00, -187500.02, 187500.00, -27.54, -187500.02, -187500.02, -18.46, -187500.02, 0.000, 0.000, 0.000, 13:39:50.343
210, 187500.00, -187500.02, 187500.00, -28.83, -187500.02, -187500.02, -19.65, -187500.02, 0.000, 0.000, 0.000, 13:39:50.793
211, 187500.00, -187500.02, 187500.00, -29.19, -187500.02, -187500.02, -19.94, -187500.02, 0.044, 0.116, 1.000, 13:39:50.793
212, 187500.00, -187500.02, 187500.00, -31.43, -187500.02, -187500.02, -22.60, -187500.02, 0.000, 0.000, 0.000, 13:39:50.794
213, 187500.00, -187500.02, 187500.00, -27.81, -187500.02, -187500.02, -18.91, -187500.02, 0.000, 0.000, 0.000, 13:39:50.794
214, 187500.00, -187500.02, 187500.00, -28.63, -187500.02, -187500.02, -19.49, -187500.02, 0.000, 0.000, 0.000, 13:39:50.794
215, 187500.00, -187500.02, 187500.00, -29.19, -187500.02, -187500.02, -19.98, -187500.02, 0.000, 0.000, 0.000, 13:39:50.794
216, 187500.00, -187500.02, 187500.00, -31.25, -187500.02, -187500.02, -22.22, -187500.02, 0.000, 0.000, 0.000, 13:39:50.795
217, 187500.00, -187500.02, 187500.00, -28.39, -187500.02, -187500.02, -19.47, -187500.02, 0.000, 0.000, 0.000, 13:39:50.795
218, 187500.00, -187500.02, 187500.00, -28.16, -187500.02, -187500.02, -19.02, -187500.02, 0.000, 0.000, 0.000, 13:39:50.795
219, 187500.00, -187500.02, 187500.00, -28.90, -187500.02, -187500.02, -19.76, -187500.02, 0.000, 0.000, 0.000, 13:39:50.795
220, 187500.00, -187500.02, 187500.00, -30.87, -187500.02, -187500.02, -21.77, -187500.02, 0.000, 0.000, 0.000, 13:39:50.796
221, 187500.00, -187500.02, 187500.00, -29.64, -187500.02, -187500.02, -20.09, -187500.02, 0.040, 0.116, 0.996, 13:39:50.796
222, 187500.00, -187500.02, 187500.00, -28.10, -187500.02, -187500.02, -18.48, -187500.02, 0.000, 0.000, 0.000, 13:39:50.796
223, 187500.00, -187500.02, 187500.00, -29.15, -187500.02, -187500.02, -19.65, -187500.02, 0.000, 0.000, 0.000, 13:39:50.797
224, 187500.00, -187500.02, 187500.00, -30.04, -187500.02, -187500.02, -20.90, -187500.02, 0.000, 0.000, 0.000, 13:39:50.797
225, 187500.00, -187500.02, 187500.00, -30.13, -187500.02, -187500.02, -21.03, -187500.02, 0.000, 0.000, 0.000, 13:39:50.797
226, 187500.00, -187500.02, 187500.00, -27.47, -187500.02, -187500.02, -18.33, -187500.02, 0.000, 0.000, 0.000, 13:39:50.797
227, 187500.00, -187500.02, 187500.00, -28.99, -187500.02, -187500.02, -19.78, -187500.02, 0.000, 0.000, 0.000, 13:39:50.798
228, 187500.00, -187500.02, 187500.00, -29.39, -187500.02, -187500.02, -20.65, -187500.02, 0.000, 0.000, 0.000, 13:39:50.798
229, 187500.00, -187500.02, 187500.00, -30.60, -187500.02, -187500.02, -21.93, -187500.02, 0.000, 0.000, 0.000, 13:39:50.798
230, 187500.00, -187500.02, 187500.00, -27.36, -187500.02, -187500.02, -18.31, -187500.02, 0.000, 0.000, 0.000, 13:39:50.798
231, 187500.00, -187500.02, 187500.00, -28.86, -187500.02, -187500.02, -19.87, -187500.02, 0.036, 0.122, 0.996, 13:39:50.799
232, 187500.00, -187500.02, 187500.00, -29.28, -187500.02, -187500.02, -19.83, -187500.02, 0.000, 0.000, 0.000, 13:39:50.799
233, 187500.00, -187500.02, 187500.00, -31.38, -187500.02, -187500.02, -22.20, -187500.02, 0.000, 0.000, 0.000, 13:39:50.799
234, 187500.00, -187500.02, 187500.00, -27.76, -187500.02, -187500.02, -18.28, -187500.02, 0.000, 0.000, 0.000, 13:39:50.800
235, 187500.00, -187500.02, 187500.00, -28.70, -187500.02, -187500.02, -19.54, -187500.02, 0.000, 0.000, 0.000, 13:39:50.800
236, 187500.00, -187500.02, 187500.00, -29.10, -187500.02, -187500.02, -19.98, -187500.02, 0.000, 0.000, 0.000, 13:39:50.800
237, 187500.00, -187500.02, 187500.00, -31.43, -187500.02, -187500.02, -22.51, -187500.02, 0.000, 0.000, 0.000, 13:39:50.800
238, 187500.00, -187500.02, 187500.00, -28.23, -187500.02, -187500.02, -19.09, -187500.02, 0.000, 0.000, 0.000, 13:39:50.801
239, 187500.00, -187500.02, 187500.00, -28.65, -187500.02, -187500.02, -19.49, -187500.02, 0.000, 0.000, 0.000, 13:39:50.801
240, 187500.00, -187500.02, 187500.00, -28.72, -187500.02, -187500.02, -19.94, -187500.02, 0.000, 0.000, 0.000, 13:39:50.801
241, 187500.00, -187500.02, 187500.00, -30.93, -187500.02, -187500.02, -22.02, -187500.02, 0.038, 0.122, 1.002, 13:39:50.801
242, 187500.00, -187500.02, 187500.00, -28.77, -187500.02, -187500.02, -19.40, -187500.02, 0.000, 0.000, 0.000, 13:39:50.802
243, 187500.00, -187500.02, 187500.00, -28.27, -187500.02, -187500.02, -18.93, -187500.02, 0.000, 0.000, 0.000, 13:39:50.802
244, 187500.00, -187500.02, 187500.00, -29.03, -187500.02, -187500.02, -19.80, -187500.02, 0.000, 0.000, 0.000, 13:39:50.802
245, 187500.00, -187500.02, 187500.00, -30.33, -187500.02, -187500.02, -21.41, -187500.02, 0.000, 0.000, 0.000, 13:39:50.802
246, 187500.00, -187500.02, 187500.00, -29.71, -187500.02, -187500.02, -20.27, -187500.02, 0.000, 0.000, 0.000, 13:39:50.803
247, 187500.00, -187500.02, 187500.00, -27.54, -187500.02, -187500.02, -18.46, -187500.02, 0.000, 0.000, 0.000, 13:39:50.803
248, 187500.00, -187500.02, 187500.00, -28.70, -187500.02, -187500.02, -19.60, -187500.02, 0.000, 0.000, 0.000, 13:39:50.803
249, 187500.00, -187500.02, 187500.00, -29.91, -187500.02, -187500.02, -20.83, -187500.02, 0.000, 0.000, 0.000, 13:39:50.803
250, 187500.00, -187500.02, 187500.00, -30.17, -187500.02, -187500.02, -21.12, -187500.02, 0.000, 0.000, 0.000, 13:39:50.804
251, 187500.00, -187500.02, 187500.00, -27.27, -187500.02, -187500.02, -18.08, -187500.02, 0.042, 0.122, 0.996, 13:39:50.804
252, 187500.00, -187500.02, 187500.00, -28.86, -187500.02, -187500.02, -19.80, -187500.02, 0.000, 0.000, 0.000, 13:39:50.804
253, 187500.00, -187500.02, 187500.00, -29.62, -187500.02, -187500.02, -20.32, -187500.02, 0.000, 0.000, 0.000, 13:39:50.804
254, 187500.00, -187500.02, 187500.00, -30.82, -187500.02, -187500.02, -21.82, -187500.02, 0.000, 0.000, 0.000, 13:39:50.805
255, 187500.00, -187500.02, 187500.00, -27.36, -187500.02, -187500.02, -18.02, -187500.02, 0.000, 0.000, 0.000, 13:39:50.805
0, 187500.00, -187500.02, 187500.00, -28.81, -187500.02, -187500.02, -19.67, -187500.02, 0.000, 0.000, 0.000, 13:39:50.805
1, 187500.00, -187500.02, 187500.00, -28.99, -187500.02, -187500.02, -19.98, -187500.02, 0.000, 0.000, 0.000, 13:39:50.805
2, 187500.00, -187500.02, 187500.00, -31.09, -187500.02, -187500.02, -22.22, -187500.02, 0.000, 0.000, 0.000, 13:39:50.806
3, 187500.00, -187500.02, 187500.00, -27.65, -187500.02, -187500.02, -18.44, -187500.02, 0.000, 0.000, 0.000, 13:39:50.806
4, 187500.00, -187500.02, 187500.00, -28.48, -187500.02, -187500.02, -19.58, -187500.02, 0.000, 0.000, 0.000, 13:39:50.806
5, 187500.00, -187500.02, 187500.00, -28.86, -187500.02, -187500.02, -19.76, -187500.02, 0.042, 0.118, 0.998, 13:39:50.806
6, 187500.00, -187500.02, 187500.00, -30.87, -187500.02, -187500.02, -22.37, -187500.02, 0.000, 0.000, 0.000, 13:39:50.807
7, 187500.00, -187500.02, 187500.00, -28.39, -187500.02, -187500.02, -19.09, -187500.02, 0.000, 0.000, 0.000, 13:39:50.807
8, 187500.00, -187500.02, 187500.00, -28.50, -187500.02, -187500.02, -19.02, -187500.02, 0.000, 0.000, 0.000, 13:39:50.807
9, 187500.00, -187500.02, 187500.00, -28.97, -187500.02, -187500.02, -19.83, -187500.02, 0.000, 0.000, 0.000, 13:39:50.808
10, 187500.00, -187500.02, 187500.00, -30.87, -187500.02, -187500.02, -22.22, -187500.02, 0.000, 0.000, 0.000, 13:39:50.808
11, 187500.00, -187500.02, 187500.00, -28.99, -187500.02, -187500.02, -19.74, -187500.02, 0.000, 0.000, 0.000, 13:39:50.808
12, 187500.00, -187500.02, 187500.00, -28.07, -187500.02, -187500.02, -18.64, -187500.02, 0.000, 0.000, 0.000, 13:39:50.808
13, 187500.00, -187500.02, 187500.00, -28.92, -187500.02, -187500.02, -19.71, -187500.02, 0.000, 0.000, 0.000, 13:39:50.809
14, 187500.00, -187500.02, 187500.00, -30.53, -187500.02, -187500.02, -21.28, -187500.02, 0.044, 0.122, 1.000, 13:39:50.809
15, 187500.00, -187500.02, 187500.00, -29.68, -187500.02, -187500.02, -20.63, -187500.02, 0.000, 0.000, 0.000, 13:39:50.809
16, 187500.00, -187500.02, 187500.00, -27.56, -187500.02, -187500.02, -18.22, -187500.02, 0.000, 0.000, 0.000, 13:39:50.809
17, 187500.00, -187500.02, 187500.00, -29.15, -187500.02, -187500.02, -19.49, -187500.02, 0.000, 0.000, 0.000, 13:39:50.809
18, 187500.00, -187500.02, 187500.00, -29.88, -187500.02, -187500.02, -20.83, -187500.02, 0.000, 0.000, 0.000, 13:39:50.810
19, 187500.00, -187500.02, 187500.00, -30.44, -187500.02, -187500.02, -21.73, -187500.02, 0.000, 0.000, 0.000, 13:39:50.810
20, 187500.00, -187500.02, 187500.00, -27.43, -187500.02, -187500.02, -18.24, -187500.02, 0.000, 0.000, 0.000, 13:39:50.810
21, 187500.00, -187500.02, 187500.00, -28.97, -187500.02, -187500.02, -19.92, -187500.02, 0.000, 0.000, 0.000, 13:39:50.810
22, 187500.00, -187500.02, 187500.00, -29.44, -187500.02, -187500.02, -20.45, -187500.02, 0.000, 0.000, 0.000, 13:39:50.810
23, 187500.00, -187500.02, 187500.00, -31.05, -187500.02, -187500.02, -22.24, -187500.02, 0.000, 0.000, 0.000, 13:39:50.810
24, 187500.00, -187500.02, 187500.00, -27.31, -187500.02, -187500.02, -18.17, -187500.02, 0.044, 0.124, 0.994, 13:39:50.811
25, 187500.00, -187500.02, 187500.00, -28.74, -187500.02, -187500.02, -19.65, -187500.02, 0.000, 0.000, 0.000, 13:39:50.811
26, 187500.00, -187500.02, 187500.00, -29.15, -187500.02, -187500.02, -19.83, -187500.02, 0.000, 0.000, 0.000, 13:39:50.811
27, 187500.00, -187500.02, 187500.00, -31.47, -187500.02, -187500.02, -22.26, -187500.02, 0.000, 0.000, 0.000, 13:39:50.811
28, 187500.00, -187500.02, 187500.00, -28.25, -187500.02, -187500.02, -18.51, -187500.02, 0.000, 0.000, 0.000, 13:39:50.812
29, 187500.00, -187500.02, 187500.00, -28.65, -187500.02, -187500.02, -19.38, -187500.02, 0.000, 0.000, 0.000, 13:39:50.812
30, 187500.00, -187500.02, 187500.00, -28.86, -187500.02, -187500.02, -19.60, -187500.02, 0.000, 0.000, 0.000, 13:39:50.812
31, 187500.00, -187500.02, 187500.00, -31.09, -187500.02, -187500.02, -22.28, -187500.02, 0.000, 0.000, 0.000, 13:39:50.812
32, 187500.00, -187500.02, 187500.00, -28.32, -187500.02, -187500.02, -19.27, -187500.02, 0.000, 0.000, 0.000, 13:39:50.812
33, 187500.00, -187500.02, 187500.00, -28.10, -187500.02, -187500.02, -19.11, -187500.02, 0.000, 0.000, 0.000, 13:39:50.813
34, 187500.00, -187500.02, 187500.00, -29.08, -187500.02, -187500.02, -19.74, -187500.02, 0.040, 0.122, 1.002, 13:39:50.813
35, 187500.00, -187500.02, 187500.00, -31.05, -187500.02, -187500.02, -21.73, -187500.02, 0.000, 0.000, 0.000, 13:39:50.813
36, 187500.00, -187500.02, 187500.00, -29.15, -187500.02, -187500.02, -19.87, -187500.02, 0.000, 0.000, 0.000, 13:39:50.813
37, 187500.00, -187500.02, 187500.00, -27.94, -187500.02, -187500.02, -18.75, -187500.02, 0.000, 0.000, 0.000, 13:39:50.814
38, 187500.00, -187500.02, 187500.00, -29.10, -187500.02, -187500.02, -19.74, -187500.02, 0.000, 0.000, 0.000, 13:39:50.814
39, 187500.00, -187500.02, 187500.00, -30.71, -187500.02, -187500.02, -21.19, -187500.02, 0.000, 0.000, 0.000, 13:39:50.814
40, 187500.00, -187500.02, 187500.00, -30.15, -187500.02, -187500.02, -20.72, -187500.02, 0.000, 0.000, 0.000, 13:39:50.814
41, 187500.00, -187500.02, 187500.00, -27.51, -187500.02, -187500.02, -18.26, -187500.02, 0.000, 0.000, 0.000, 13:39:50.815
42, 187500.00, -187500.02, 187500.00, -29.08, -187500.02, -187500.02, -19.87, -187500.02, 0.000, 0.000, 0.000, 13:39:50.815
43, 187500.00, -187500.02, 187500.00, -29.75, -187500.02, -187500.02, -20.59, -187500.02, 0.000, 0.000, 0.000, 13:39:50.815
44, 187500.00, -187500.02, 187500.00, -30.55, -187500.02, -187500.02, -21.75, -187500.02, 0.044, 0.126, 1.002, 13:39:50.815
45, 187500.00, -187500.02, 187500.00, -27.36, -187500.02, -187500.02, -18.35, -187500.02, 0.000, 0.000, 0.000, 13:39:50.815
46, 187500.00, -187500.02, 187500.00, -29.06, -187500.02, -187500.02, -19.94, -187500.02, 0.000, 0.000, 0.000, 13:39:50.816
47, 187500.00, -187500.02, 187500.00, -29.28, -187500.02, -187500.02, -20.30, -187500.02, 0.000, 0.000, 0.000, 13:39:50.816
48, 187500.00, -187500.02, 187500.00, -31.43, -187500.02, -187500.02, -22.17, -187500.02, 0.000, 0.000, 0.000, 13:39:50.816
49, 187500.00, -187500.02, 187500.00, -27.74, -187500.02, -187500.02, -17.90, -187500.02, 0.000, 0.000, 0.000, 13:39:50.816
50, 187500.00, -187500.02, 187500.00, -29.15, -187500.02, -187500.02, -19.49, -187500.02, 0.000, 0.000, 0.000, 13:39:50.816
51, 187500.00, -187500.02, 187500.00, -28.95, -187500.02, -187500.02, -20.16, -187500.02, 0.000, 0.000, 0.000, 13:39:50.816
52, 187500.00, -187500.02, 187500.00, -31.18, -187500.02, -187500.02, -22.58, -187500.02, 0.000, 0.000, 0.000, 13:39:50.817
53, 187500.00, -187500.02, 187500.00, -27.83, -187500.02, -187500.02, -18.93, -187500.02, 0.000, 0.000, 0.000, 13:39:50.817
54, 187500.00, -187500.02, 187500.00, -28.43, -187500.02, -187500.02, -19.29, -187500.02, 0.046, 0.116, 0.998, 13:39:50.817
55, 187500.00, -187500.02, 187500.00, -29.03, -187500.02, -187500.02, -19.69, -187500.02, 0.000, 0.000, 0.000, 13:39:50.817
56, 187500.00, -187500.02, 187500.00, -31.34, -187500.02, -187500.02, -21.84, -187500.02, 0.000, 0.000, 0.000, 13:39:50.817
57, 187500.00, -187500.02, 187500.00, -28.74, -187500.02, -187500.02, -19.31, -187500.02, 0.000, 0.000, 0.000, 13:39:50.818
58, 187500.00, -187500.02, 187500.00, -28.14, -187500.02, -187500.02, -18.89, -187500.02, 0.000, 0.000, 0.000, 13:39:50.818
59, 187500.00, -187500.02, 187500.00, -28.88, -187500.02, -187500.02, -19.49, -187500.02, 0.000, 0.000, 0.000, 13:39:50.818
60, 187500.00, -187500.02, 187500.00, -30.62, -187500.02, -187500.02, -21.57, -187500.02, 0.000, 0.000, 0.000, 13:39:50.818
61, 187500.00, -187500.02, 187500.00, -29.41, -187500.02, -187500.02, -20.09, -187500.02, 0.000, 0.000, 0.000, 13:39:50.818
62, 187500.00, -187500.02, 187500.00, -27.85, -187500.02, -187500.02, -18.37, -187500.02, 0.000, 0.000, 0.000, 13:39:50.818
63, 187500.00, -187500.02, 187500.00, -28.77, -187500.02, -187500.02, -19.54, -187500.02, 0.048, 0.118, 0.992, 13:39:50.819
64, 187500.00, -187500.02, 187500.00, -29.95, -187500.02, -187500.02, -20.83, -187500.02, 0.000, 0.000, 0.000, 13:39:50.819
65, 187500.00, -187500.02, 187500.00, -29.97, -187500.02, -187500.02, -20.94, -187500.02, 0.000, 0.000, 0.000, 13:39:50.819
66, 187500.00, -187500.02, 187500.00, -27.25, -187500.02, -187500.02, -18.28, -187500.02, 0.000, 0.000, 0.000, 13:39:50.819
67, 187500.00, -187500.02, 187500.00, -28.99, -187500.02, -187500.02, -19.92, -187500.02, 0.000, 0.000, 0.000, 13:39:50.819
68, 187500.00, -187500.02, 187500.00, -29.88, -187500.02, -187500.02, -20.68, -187500.02, 0.000, 0.000, 0.000, 13:39:50.819
69, 187500.00, -187500.02, 187500.00, -31.11, -187500.02, -187500.02, -21.99, -187500.02, 0.000, 0.000, 0.000, 13:39:50.820
70, 187500.00, -187500.02, 187500.00, -27.58, -187500.02, -187500.02, -18.15, -187500.02, 0.000, 0.000, 0.000, 13:39:50.820
71, 187500.00, -187500.02, 187500.00, -28.65, -187500.02, -187500.02, -19.87, -187500.02, 0.000, 0.000, 0.000, 13:39:50.820
72, 187500.00, -187500.02, 187500.00, -29.30, -187500.02, -187500.02, -20.21, -187500.02, 0.000, 0.000, 0.000, 13:39:50.820
73, 187500.00, -187500.02, 187500.00, -31.36, -187500.02, -187500.02, -22.33, -187500.02, 0.046, 0.120, 0.994, 13:39:50.820
74, 187500.00, -187500.02, 187500.00, -27.63, -187500.02, -187500.02, -18.26, -187500.02, 0.000, 0.000, 0.000, 13:39:50.821
75, 187500.00, -187500.02, 187500.00, -28.59, -187500.02, -187500.02, -19.60, -187500.02, 0.000, 0.000, 0.000, 13:39:51.274
76, 187500.00, -187500.02, 187500.00, -28.97, -187500.02, -187500.02, -19.92, -187500.02, 0.000, 0.000, 0.000, 13:39:51.274
77, 187500.00, -187500.02, 187500.00, -31.27, -187500.02, -187500.02, -22.22, -187500.02, 0.000, 0.000, 0.000, 13:39:51.274
78, 187500.00, -187500.02, 187500.00, -28.03, -187500.02, -187500.02, -18.57, -187500.02, 0.000, 0.000, 0.000, 13:39:51.274
79, 187500.00, -187500.02, 187500.00, -28.41, -187500.02, -187500.02, -19.04, -187500.02, 0.000, 0.000, 0.000, 13:39:51.275
80, 187500.00, -187500.02, 187500.00, -28.90, -187500.02, -187500.02, -19.60, -187500.02, 0.000, 0.000, 0.000, 13:39:51.275
81, 187500.00, -187500.02, 187500.00, -31.11, -187500.02, -187500.02, -22.02, -187500.02, 0.000, 0.000, 0.000, 13:39:51.275
82, 187500.00, -187500.02, 187500.00, -28.95, -187500.02, -187500.02, -19.54, -187500.02, 0.000, 0.000, 0.000, 13:39:51.275
83, 187500.00, -187500.02, 187500.00, -27.89, -187500.02, -187500.02, -18.64, -187500.02, 0.048, 0.120, 0.990, 13:39:51.275
84, 187500.00, -187500.02, 187500.00, -28.81, -187500.02, -187500.02, -19.76, -187500.02, 0.000, 0.000, 0.000, 13:39:51.275
85, 187500.00, -187500.02, 187500.00, -30.31, -187500.02, -187500.02, -21.61, -187500.02, 0.000, 0.000, 0.000, 13:39:51.276
86, 187500.00, -187500.02, 187500.00, -29.59, -187500.02, -187500.02, -20.43, -187500.02, 0.000, 0.000, 0.000, 13:39:51.276
87, 187500.00, -187500.02, 187500.00, -27.65, -187500.02, -187500.02, -18.24, -187500.02, 0.000, 0.000, 0.000, 13:39:51.276
88, 187500.00, -187500.02, 187500.00, -29.15, -187500.02, -187500.02, -19.74, -187500.02, 0.000, 0.000, 0.000, 13:39:51.276
89, 187500.00, -187500.02, 187500.00, -29.79, -187500.02, -187500.02, -20.85, -187500.02, 0.000, 0.000, 0.000, 13:39:51.276
90, 187500.00, -187500.02, 187500.00, -30.44, -187500.02, -187500.02, -21.35, -187500.02, 0.000, 0.000, 0.000, 13:39:51.276
91, 187500.00, -187500.02, 187500.00, -27.74, -187500.02, -187500.02, -18.31, -187500.02, 0.000, 0.000, 0.000, 13:39:51.277
92, 187500.00, -187500.02, 187500.00, -28.99, -187500.02, -187500.02, -19.83, -187500.02, 0.000, 0.000, 0.000, 13:39:51.277
93, 187500.00, -187500.02, 187500.00, -29.33, -187500.02, -187500.02, -20.16, -187500.02, 0.046, 0.122, 0.990, 13:39:51.277
94, 187500.00, -187500.02, 187500.00, -30.71, -187500.02, -187500.02, -22.04, -187500.02, 0.000, 0.000, 0.000, 13:39:51.277
95, 187500.00, -187500.02, 187500.00, -27.09, -187500.02, -187500.02, -18.46, -187500.02, 0.000, 0.000, 0.000, 13:39:51.277
96, 187500.00, -187500.02, 187500.00, -28.72, -187500.02, -187500.02, -19.65, -187500.02, 0.000, 0.000, 0.000, 13:39:51.278
97, 187500.00, -187500.02, 187500.00, -29.10, -187500.02, -187500.02, -19.67, -187500.02, 0.000, 0.000, 0.000, 13:39:51.278
98, 187500.00, -187500.02, 187500.00, -30.98, -187500.02, -187500.02, -22.11, -187500.02, 0.000, 0.000, 0.000, 13:39:51.278
99, 187500.00, -187500.02, 187500.00, -27.45, -187500.02, -187500.02, -18.53, -187500.02, 0.000, 0.000, 0.000, 13:39:51.278
100, 187500.00, -187500.02, 187500.00, -28.52, -187500.02, -187500.02, -19.47, -187500.02, 0.000, 0.000, 0.000, 13:39:51.278
101, 187500.00, -187500.02, 187500.00, -28.81, -187500.02, -187500.02, -19.71, -187500.02, 0.000, 0.000, 0.000, 13:39:51.279
102, 187500.00, -187500.02, 187500.00, -30.76, -187500.02, -187500.02, -22.33, -187500.02, 0.000, 0.000, 0.000, 13:39:51.279
103, 187500.00, -187500.02, 187500.00, -28.10, -187500.02, -187500.02, -19.31, -187500.02, 0.044, 0.122, 0.990, 13:39:51.279
104, 187500.00, -187500.02, 187500.00, -28.21, -187500.02, -187500.02, -19.38, -187500.02, 0.000, 0.000, 0.000, 13:39:51.279
105, 187500.00, -187500.02, 187500.00, -29.03, -187500.02, -187500.02, -19.76, -187500.02, 0.000, 0.000, 0.000, 13:39:51.279
106, 187500.00, -187500.02, 187500.00, -30.85, -187500.02, -187500.02, -21.70, -187500.02, 0.000, 0.000, 0.000, 13:39:51.280
107, 187500.00, -187500.02, 187500.00, -28.99, -187500.02, -187500.02, -19.71, -187500.02, 0.000, 0.000, 0.000, 13:39:51.280
108, 187500.00, -187500.02, 187500.00, -28.19, -187500.02, -187500.02, -18.84, -187500.02, 0.000, 0.000, 0.000, 13:39:51.280
109, 187500.00, -187500.02, 187500.00, -28.81, -187500.02, -187500.02, -19.80, -187500.02, 0.000, 0.000, 0.000, 13:39:51.280
110, 187500.00, -187500.02, 187500.00, -30.20, -187500.02, -187500.02, -21.21, -187500.02, 0.000, 0.000, 0.000, 13:39:51.281
111, 187500.00, -187500.02, 187500.00, -29.59, -187500.02, -187500.02, -20.54, -187500.02, 0.000, 0.000, 0.000, 13:39:51.281
112, 187500.00, -187500.02, 187500.00, -27.47, -187500.02, -187500.02, -18.17, -187500.02, 0.000, 0.000, 0.000, 13:39:51.281
113, 187500.00, -187500.02, 187500.00, -28.74, -187500.02, -187500.02, -19.71, -187500.02, 0.046, 0.118, 0.992, 13:39:51.281
114, 187500.00, -187500.02, 187500.00, -29.77, -187500.02, -187500.02, -20.70, -187500.02, 0.000, 0.000, 0.000, 13:39:51.281
115, 187500.00, -187500.02, 187500.00, -30.44, -187500.02, -187500.02, -21.70, -187500.02, 0.000, 0.000, 0.000, 13:39:51.282
116, 187500.00, -187500.02, 187500.00, -27.40, -187500.02, -187500.02, -18.22, -187500.02, 0.000, 0.000, 0.000, 13:39:51.282
117, 187500.00, -187500.02, 187500.00, -29.06, -187500.02, -187500.02, -19.78, -187500.02, 0.000, 0.000, 0.000, 13:39:51.282
118, 187500.00, -187500.02, 187500.00, -29.26, -187500.02, -187500.02, -19.94, -187500.02, 0.000, 0.000, 0.000, 13:39:51.282
119, 187500.00, -187500.02, 187500.00, -31.23, -187500.02, -187500.02, -21.99, -187500.02, 0.000, 0.000, 0.000, 13:39:51.282
120, 187500.00, -187500.02, 187500.00, -27.47, -187500.02, -187500.02, -18.08, -187500.02, 0.000, 0.000, 0.000, 13:39:51.282
121, 187500.00, -187500.02, 187500.00, -28.63, -187500.02, -187500.02, -19.54, -187500.02, 0.000, 0.000, 0.000, 13:39:51.283
122, 187500.00, -187500.02, 187500.00, -28.92, -187500.02, -187500.02, -20.00, -187500.02, 0.044, 0.118, 0.992, 13:39:51.283
123, 187500.00, -187500.02, 187500.00, -31.23, -187500.02, -187500.02, -22.44, -187500.02, 0.000, 0.000, 0.000, 13:39:51.283
124, 187500.00, -187500.02, 187500.00, -27.85, -187500.02, -187500.02, -18.48, -187500.02, 0.000, 0.000, 0.000, 13:39:51.283
125, 187500.00, -187500.02, 187500.00, -28.70, -187500.02, -187500.02, -19.22, -187500.02, 0.000, 0.000, 0.000, 13:39:51.283
126, 187500.00, -187500.02, 187500.00, -29.28, -187500.02, -187500.02, -19.83, -187500.02, 0.000, 0.000, 0.000, 13:39:51.284
127, 187500.00, -187500.02, 187500.00, -31.27, -187500.02, -187500.02, -22.08, -187500.02, 0.000, 0.000, 0.000, 13:39:51.284
128, 187500.00, -187500.02, 187500.00, -28.59, -187500.02, -187500.02, -19.29, -187500.02, 0.000, 0.000, 0.000, 13:39:51.284
129, 187500.00, -187500.02, 187500.00, -28.25, -187500.02, -187500.02, -19.18, -187500.02, 0.000, 0.000, 0.000, 13:39:51.284
130, 187500.00, -187500.02, 187500.00, -29.03, -187500.02, -187500.02, -20.12, -187500.02, 0.000, 0.000, 0.000, 13:39:51.284
131, 187500.00, -187500.02, 187500.00, -30.67, -187500.02, -187500.02, -22.06, -187500.02, 0.000, 0.000, 0.000, 13:39:51.285
132, 187500.00, -187500.02, 187500.00, -28.95, -187500.02, -187500.02, -20.09, -187500.02, 0.042, 0.120, 0.996, 13:39:51.285
133, 187500.00, -187500.02, 187500.00, -27.94, -187500.02, -187500.02, -18.48, -187500.02, 0.000, 0.000, 0.000, 13:39:51.285
134, 187500.00, -187500.02, 187500.00, -28.97, -187500.02, -187500.02, -19.83, -187500.02, 0.000, 0.000, 0.000, 13:39:51.285
135, 187500.00, -187500.02, 187500.00, -30.20, -187500.02, -187500.02, -21.32, -187500.02, 0.000, 0.000, 0.000, 13:39:51.285
136, 187500.00, -187500.02, 187500.00, -30.11, -187500.02, -187500.02, -21.10, -187500.02, 0.000, 0.000, 0.000, 13:39:51.285
137, 187500.00, -187500.02, 187500.00, -27.51, -187500.02, -187500.02, -18.35, -187500.02, 0.000, 0.000, 0.000, 13:39:51.286
138, 187500.00, -187500.02, 187500.00, -29.01, -187500.02, -187500.02, -20.05, -187500.02, 0.000, 0.000, 0.000, 13:39:51.286
139, 187500.00, -187500.02, 187500.00, -29.41, -187500.02, -187500.02, -20.63, -187500.02, 0.000, 0.000, 0.000, 13:39:51.286
140, 187500.00, -187500.02, 187500.00, -30.67, -187500.02, -187500.02, -21.99, -187500.02, 0.000, 0.000, 0.000, 13:39:51.286
141, 187500.00, -187500.02, 187500.00, -27.49, -187500.02, -187500.02, -18.13, -187500.02, 0.000, 0.000, 0.000, 13:39:51.287
142, 187500.00, -187500.02, 187500.00, -28.86, -187500.02, -187500.02, -19.27, -187500.02, 0.042, 0.120, 0.994, 13:39:51.287
143, 187500.00, -187500.02, 187500.00, -28.97, -187500.02, -187500.02, -20.05, -187500.02, 0.000, 0.000, 0.000, 13:39:51.287
144, 187500.00, -187500.02, 187500.00, -31.25, -187500.02, -187500.02, -22.26, -187500.02, 0.000, 0.000, 0.000, 13:39:51.287
145, 187500.00, -187500.02, 187500.00, -27.45, -187500.02, -187500.02, -18.31, -187500.02, 0.000, 0.000, 0.000, 13:39:51.287
146, 187500.00, -187500.02, 187500.00, -28.54, -187500.02, -187500.02, -19.38, -187500.02, 0.000, 0.000, 0.000, 13:39:51.288
147, 187500.00, -187500.02, 187500.00, -28.83, -187500.02, -187500.02, -19.65, -187500.02, 0.000, 0.000, 0.000, 13:39:51.288
148, 187500.00, -187500.02, 187500.00, -31.18, -187500.02, -187500.02, -22.02, -187500.02, 0.000, 0.000, 0.000, 13:39:51.288
149, 187500.00, -187500.02, 187500.00, -27.76, -187500.02, -187500.02, -18.60, -187500.02, 0.000, 0.000, 0.000, 13:39:51.288
150, 187500.00, -187500.02, 187500.00, -28.39, -187500.02, -187500.02, -19.20, -187500.02, 0.000, 0.000, 0.000, 13:39:51.289
151, 187500.00, -187500.02, 187500.00, -28.77, -187500.02, -187500.02, -19.89, -187500.02, 0.000, 0.000, 0.000, 13:39:51.289
152, 187500.00, -187500.02, 187500.00, -30.69, -187500.02, -187500.02, -22.15, -187500.02, 0.038, 0.120, 1.000, 13:39:51.289
153, 187500.00, -187500.02, 187500.00, -28.54, -187500.02, -187500.02, -19.49, -187500.02, 0.000, 0.000, 0.000, 13:39:51.289
154, 187500.00, -187500.02, 187500.00, -28.05, -187500.02, -187500.02, -18.86, -187500.02, 0.000, 0.000, 0.000, 13:39:51.289
155, 187500.00, -187500.02, 187500.00, -28.86, -187500.02, -187500.02, -19.80, -187500.02, 0.000, 0.000, 0.000, 13:39:51.290
156, 187500.00, -187500.02, 187500.00, -30.71, -187500.02, -187500.02, -21.57, -187500.02, 0.000, 0.000, 0.000, 13:39:51.290
157, 187500.00, -187500.02, 187500.00, -29.64, -187500.02, -187500.02, -20.45, -187500.02, 0.000, 0.000, 0.000, 13:39:51.290
158, 187500.00, -187500.02, 187500.00, -27.85, -187500.02, -187500.02, -18.37, -187500.02, 0.000, 0.000, 0.000, 13:39:51.290
159, 187500.00, -187500.02, 187500.00, -28.97, -187500.02, -187500.02, -19.60, -187500.02, 0.000, 0.000, 0.000, 13:39:51.290
160, 187500.00, -187500.02, 187500.00, -29.97, -187500.02, -187500.02, -20.90, -187500.02, 0.000, 0.000, 0.000, 13:39:51.290
161, 187500.00, -187500.02, 187500.00, -30.15, -187500.02, -187500.02, -21.08, -187500.02, 0.000, 0.000, 0.000, 13:39:51.291
162, 187500.00, -187500.02, 187500.00, -27.58, -187500.02, -187500.02, -18.02, -187500.02, 0.036, 0.118, 0.996, 13:39:51.291
163, 187500.00, -187500.02, 187500.00, -28.95, -187500.02, -187500.02, -19.58, -187500.02, 0.000, 0.000, 0.000, 13:39:51.291
164, 187500.00, -187500.02, 187500.00, -29.79, -187500.02, -187500.02, -20.36, -187500.02, 0.000, 0.000, 0.000, 13:39:51.291
165, 187500.00, -187500.02, 187500.00, -31.16, -187500.02, -187500.02, -21.88, -187500.02, 0.000, 0.000, 0.000, 13:39:51.291
166, 187500.00, -187500.02, 187500.00, -27.49, -187500.02, -187500.02, -18.31, -187500.02, 0.000, 0.000, 0.000, 13:39:51.291
167, 187500.00, -187500.02, 187500.00, -28.86, -187500.02, -187500.02, -19.87, -187500.02, 0.000, 0.000, 0.000, 13:39:51.292
168, 187500.00, -187500.02, 187500.00, -29.01, -187500.02, -187500.02, -19.98, -187500.02, 0.000, 0.000, 0.000, 13:39:51.292
169, 187500.00, -187500.02, 187500.00, -31.05, -187500.02, -187500.02, -22.22, -187500.02, 0.000, 0.000, 0.000, 13:39:51.292
170, 187500.00, -187500.02, 187500.00, -27.63, -187500.02, -187500.02, -18.60, -187500.02, 0.000, 0.000, 0.000, 13:39:51.292
171, 187500.00, -187500.02, 187500.00, -28.83, -187500.02, -187500.02, -19.87, -187500.02, 0.036, 0.124, 0.998, 13:39:51.292
172, 187500.00, -187500.02, 187500.00, -29.12, -187500.02, -187500.02, -19.94, -187500.02, 0.000, 0.000, 0.000, 13:39:51.293
173, 187500.00, -187500.02, 187500.00, -31.31, -187500.02, -187500.02, -22.26, -187500.02, 0.000, 0.000, 0.000, 13:39:51.293
174, 187500.00, -187500.02, 187500.00, -28.19, -187500.02, -187500.02, -19.00, -187500.02, 0.000, 0.000, 0.000, 13:39:51.293
175, 187500.00, -187500.02, 187500.00, -28.23, -187500.02, -187500.02, -19.38, -187500.02, 0.000, 0.000, 0.000, 13:39:51.293
176, 187500.00, -187500.02, 187500.00, -28.74, -187500.02, -187500.02, -19.96, -187500.02, 0.000, 0.000, 0.000, 13:39:51.293
177, 187500.00, -187500.02, 187500.00, -30.87, -187500.02, -187500.02, -21.95, -187500.02, 0.000, 0.000, 0.000, 13:39:51.293
178, 187500.00, -187500.02, 187500.00, -28.88, -187500.02, -187500.02, -19.69, -187500.02, 0.000, 0.000, 0.000, 13:39:51.294
179, 187500.00, -187500.02, 187500.00, -27.74, -187500.02, -187500.02, -18.75, -187500.02, 0.000, 0.000, 0.000, 13:39:51.294
180, 187500.00, -187500.02, 187500.00, -28.81, -187500.02, -187500.02, -19.71, -187500.02, 0.000, 0.000, 0.000, 13:39:51.294
181, 187500.00, -187500.02, 187500.00, -30.55, -187500.02, -187500.02, -21.21, -187500.02, 0.034, 0.118, 0.992, 13:39:51.294
182, 187500.00, -187500.02, 187500.00, -29.71, -187500.02, -187500.02, -20.21, -187500.02, 0.000, 0.000, 0.000, 13:39:51.294
183, 187500.00, -187500.02, 187500.00, -27.76, -187500.02, -187500.02, -18.26, -187500.02, 0.000, 0.000, 0.000, 13:39:51.295
184, 187500.00, -187500.02, 187500.00, -29.15, -187500.02, -187500.02, -19.85, -187500.02, 0.000, 0.000, 0.000, 13:39:51.295
185, 187500.00, -187500.02, 187500.00, -29.82, -187500.02, -187500.02, -20.72, -187500.02, 0.000, 0.000, 0.000, 13:39:51.295
186, 187500.00, -187500.02, 187500.00, -30.13, -187500.02, -187500.02, -21.44, -187500.02, 0.000, 0.000, 0.000, 13:39:51.295
187, 187500.00, -187500.02, 187500.00, -27.29, -187500.02, -187500.02, -18.19, -187500.02, 0.000, 0.000, 0.000, 13:39:51.295
188, 187500.00, -187500.02, 187500.00, -29.21, -187500.02, -187500.02, -19.69, -187500.02, 0.000, 0.000, 0.000, 13:39:51.295
189, 187500.00, -187500.02, 187500.00, -29.64, -187500.02, -187500.02, -20.21, -187500.02, 0.000, 0.000, 0.000, 13:39:51.296
190, 187500.00, -187500.02, 187500.00, -31.05, -187500.02, -187500.02, -22.11, -187500.02, 0.000, 0.000, 0.000, 13:39:51.296
191, 187500.00, -187500.02, 187500.00, -27.54, -187500.02, -187500.02, -18.13, -187500.02, 0.034, 0.122, 0.992, 13:39:51.296
192, 187500.00, -187500.02, 187500.00, -28.77, -187500.02, -187500.02, -19.49, -187500.02, 0.000, 0.000, 0.000, 13:39:51.296
